led-kg5
Integration time [ms]:   0,255
Averaging Nr. [scans]: 100
Smoothing Nr. [pixels]: 0
Data measured with spectrometer [name]: 1403062U1
Wave   ;Sample   ;Dark     ;Reference;Scope Corrected for Dark
[nm]   ;[counts] ;[counts] ;[counts] 

 176,36;   13,520;   -1,990;   -4,940;15,51000
 176,71;    7,700;    2,510;    1,200; 5,19000
 177,05;   11,720;   -6,620;    1,620;18,34000
 177,40;    6,660;   -1,320;    1,160; 7,98000
 177,74;   11,350;    1,740;    1,630; 9,61000
 178,09;   10,360;    2,820;    0,700; 7,54000
 178,43;   10,430;    4,170;   -2,880; 6,26000
 178,78;   10,440;   -2,840;    7,430;13,28000
 179,12;    7,250;    1,090;    2,350; 6,16000
 179,47;    7,130;    5,450;   -1,290; 1,68000
 179,81;    9,920;    0,850;    7,770; 9,07000
 180,16;    9,160;    0,250;   -2,990; 8,91000
 180,50;   12,780;   -0,980;   -1,580;13,76000
 180,85;   17,320;    7,020;   -0,790;10,30000
 181,19;    9,180;    1,680;   -3,310; 7,50000
 181,54;   10,800;   -3,060;   -0,550;13,86000
 181,88;   11,090;    7,780;   -6,480; 3,31000
 182,23;   12,720;   -4,800;   -3,500;17,52000
 182,57;    9,140;    0,930;    0,010; 8,21000
 182,92;   12,140;    4,510;    1,600; 7,63000
 183,26;   13,180;    4,200;    6,460; 8,98000
 183,61;   13,110;    5,830;    5,600; 7,28000
 183,95;   10,060;    7,070;    0,620; 2,99000
 184,30;   12,760;    3,610;    2,620; 9,15000
 184,64;   13,650;   -4,800;    0,860;18,45000
 184,99;   11,200;    1,950;    1,700; 9,25000
 185,33;   12,530;    4,290;    1,640; 8,24000
 185,68;   10,000;    1,740;   -2,140; 8,26000
 186,02;   11,530;   -3,790;    8,470;15,32000
 186,37;    9,870;   -3,660;   -0,240;13,53000
 186,71;   16,430;   -3,210;   -2,180;19,64000
 187,06;   16,700;    3,320;    3,950;13,38000
 187,40;   13,040;    5,190;    3,110; 7,85000
 187,75;   12,750;    0,600;    6,000;12,15000
 188,09;   11,550;    4,390;    2,940; 7,16000
 188,44;   16,840;    2,610;    6,360;14,23000
 188,78;   11,300;    3,390;   -2,530; 7,91000
 189,13;   15,180;   -1,080;    0,290;16,26000
 189,47;   15,610;   -3,040;    2,160;18,65000
 189,82;   10,060;    6,140;   -0,170; 3,92000
 190,16;   12,040;   -1,890;   -0,530;13,93000
 190,51;   16,350;    3,590;   -2,300;12,76000
 190,85;   10,820;    2,380;   -3,190; 8,44000
 191,20;   11,950;    2,760;   -3,450; 9,19000
 191,54;   13,160;   -2,560;   -5,110;15,72000
 191,88;   17,680;    4,150;    3,760;13,53000
 192,23;    9,000;    2,550;   -3,410; 6,45000
 192,57;   11,380;    7,540;    8,440; 3,84000
 192,92;   12,050;   -1,600;   -3,170;13,65000
 193,26;    9,290;    6,800;    8,660; 2,49000
 193,61;   12,150;    0,860;   -6,900;11,29000
 193,95;   16,260;    4,890;    0,280;11,37000
 194,30;   15,890;   -1,090;   -4,090;16,98000
 194,64;   12,930;   -2,190;    4,160;15,12000
 194,99;    8,450;    5,990;    2,080; 2,46000
 195,33;   16,240;    1,730;   -0,800;14,51000
 195,68;   12,870;   -2,730;    0,700;15,60000
 196,02;    9,100;    1,760;    5,190; 7,34000
 196,37;   11,210;   -4,210;    1,300;15,42000
 196,71;   14,530;    2,870;    4,470;11,66000
 197,05;    9,050;   -4,830;   -2,210;13,88000
 197,40;   14,480;    9,870;    3,920; 4,61000
 197,74;   14,920;    5,210;   -1,110; 9,71000
 198,09;   22,240;    7,750;    5,080;14,49000
 198,43;   18,440;    3,540;    2,110;14,90000
 198,78;   14,190;    3,450;    1,580;10,74000
 199,12;   12,950;   -1,970;    0,300;14,92000
 199,47;   16,000;    0,170;    4,730;15,83000
 199,81;   17,230;   -2,950;    2,230;20,18000
 200,16;   11,800;   -3,900;   -2,050;15,70000
 200,50;   11,130;   -1,310;   -0,260;12,44000
 200,84;   13,850;    3,870;    3,170; 9,98000
 201,19;   13,090;   -1,360;    1,890;14,45000
 201,53;    9,390;   -0,350;   -2,770; 9,74000
 201,88;   15,340;   -7,410;    4,320;22,75000
 202,22;   10,780;    6,230;    0,800; 4,55000
 202,57;   16,170;   -2,960;    6,390;19,13000
 202,91;   17,290;    7,560;    2,090; 9,73000
 203,26;   15,400;   -2,760;    1,290;18,16000
 203,60;   16,070;    2,490;    5,630;13,58000
 203,94;   15,450;   -3,000;   -1,070;18,45000
 204,29;   19,020;    9,720;   -0,730; 9,30000
 204,63;   15,610;   -0,230;   -0,090;15,84000
 204,98;   12,090;    4,780;    6,600; 7,31000
 205,32;   16,210;    3,220;   -1,270;12,99000
 205,67;   18,170;    0,060;    4,650;18,11000
 206,01;   13,220;    1,870;    2,660;11,35000
 206,36;   11,770;   -1,060;    7,150;12,83000
 206,70;   13,550;   -1,540;    4,990;15,09000
 207,04;   17,400;   -0,190;    1,580;17,59000
 207,39;   13,000;   -4,560;   -2,780;17,56000
 207,73;   14,670;    3,730;    2,870;10,94000
 208,08;   14,410;    0,000;    0,280;14,41000
 208,42;   13,620;    0,440;    0,400;13,18000
 208,77;    8,870;   -0,300;    1,510; 9,17000
 209,11;   11,940;    5,860;    4,410; 6,08000
 209,45;   15,790;    3,020;   -6,000;12,77000
 209,80;   21,730;    3,130;    2,210;18,60000
 210,14;   18,360;   -3,910;    2,850;22,27000
 210,49;   16,530;    8,130;    0,830; 8,40000
 210,83;   13,760;    5,290;   -0,500; 8,47000
 211,18;    8,460;   -0,330;    1,840; 8,79000
 211,52;   14,200;    0,440;   -2,050;13,76000
 211,86;   16,440;    0,640;   -0,760;15,80000
 212,21;   14,020;    5,140;   -0,850; 8,88000
 212,55;    7,580;    2,560;    0,350; 5,02000
 212,90;   10,170;   -2,920;    5,690;13,09000
 213,24;   10,240;    1,170;   -0,200; 9,07000
 213,59;   12,930;    3,850;    1,370; 9,08000
 213,93;   18,900;   -2,180;   -2,980;21,08000
 214,27;   15,520;    1,980;   -1,450;13,54000
 214,62;   17,180;    4,340;    4,640;12,84000
 214,96;   17,670;    7,600;    0,500;10,07000
 215,31;   17,700;    4,730;    0,660;12,97000
 215,65;   17,010;   -1,950;    0,530;18,96000
 216,00;   15,460;    9,820;    3,700; 5,64000
 216,34;   17,720;   -5,770;    7,630;23,49000
 216,68;   16,130;    1,360;    2,550;14,77000
 217,03;   17,030;   -2,520;   -2,950;19,55000
 217,37;   14,380;   -1,750;    7,880;16,13000
 217,72;   19,580;    2,390;   -3,170;17,19000
 218,06;   12,660;    5,830;    5,030; 6,83000
 218,40;   11,710;    4,860;   -2,040; 6,85000
 218,75;   14,300;    0,520;    2,830;13,78000
 219,09;    8,670;   -2,330;    4,950;11,00000
 219,44;   17,540;    0,850;    1,680;16,69000
 219,78;   16,740;   -6,110;    0,300;22,85000
 220,12;   13,980;    1,860;   -2,360;12,12000
 220,47;   19,730;    1,740;    0,160;17,99000
 220,81;   16,900;    7,670;    1,970; 9,23000
 221,16;   18,210;    1,010;    2,430;17,20000
 221,50;   15,430;   -3,260;    0,030;18,69000
 221,84;   14,260;   -1,290;    4,400;15,55000
 222,19;   17,150;    5,290;   -1,310;11,86000
 222,53;   15,410;    1,180;    7,310;14,23000
 222,88;   19,200;    4,630;    8,230;14,57000
 223,22;   16,750;   -1,170;   -4,200;17,92000
 223,56;   12,790;   -3,660;   11,460;16,45000
 223,91;   12,340;    2,400;   -0,780; 9,94000
 224,25;   14,220;    7,250;    2,120; 6,97000
 224,60;   21,390;    0,460;   -1,480;20,93000
 224,94;   20,980;   -0,840;    3,330;21,82000
 225,28;   14,470;   -3,050;   -1,170;17,52000
 225,63;   17,390;   -0,750;    5,740;18,14000
 225,97;   16,190;    3,490;    1,330;12,70000
 226,32;   24,080;    3,510;   -0,260;20,57000
 226,66;   18,730;    0,040;    5,090;18,69000
 227,00;   13,350;   -0,270;    3,420;13,62000
 227,35;   13,160;    1,730;   -2,020;11,43000
 227,69;   18,450;    0,190;    1,910;18,26000
 228,04;   10,350;   -1,330;   -0,610;11,68000
 228,38;   11,600;    3,580;   -5,470; 8,02000
 228,72;   13,250;   -5,870;   -3,900;19,12000
 229,07;   14,920;    2,060;    0,630;12,86000
 229,41;    9,780;    0,180;   -0,140; 9,60000
 229,75;   10,620;    3,300;    4,380; 7,32000
 230,10;   17,580;    3,900;   -0,170;13,68000
 230,44;   22,260;    4,260;    7,890;18,00000
 230,79;   13,640;    0,920;   -0,360;12,72000
 231,13;   20,940;    7,220;    4,010;13,72000
 231,47;   15,400;    0,750;    3,080;14,65000
 231,82;   15,070;    0,980;    6,400;14,09000
 232,16;   15,360;    2,380;    1,390;12,98000
 232,50;   12,540;    2,580;    1,650; 9,96000
 232,85;   18,090;    3,960;   -2,240;14,13000
 233,19;   17,280;    7,270;    6,400;10,01000
 233,54;   16,830;   -5,030;    9,110;21,86000
 233,88;   19,690;    3,540;   -0,630;16,15000
 234,22;   20,580;    3,910;    3,200;16,67000
 234,57;   18,140;    2,160;   -0,350;15,98000
 234,91;   16,620;    4,860;    3,130;11,76000
 235,25;   24,420;    3,270;    0,820;21,15000
 235,60;    9,960;    2,640;    4,420; 7,32000
 235,94;   16,620;   -1,530;   -1,930;18,15000
 236,29;   12,760;    0,100;   -3,820;12,66000
 236,63;   12,470;    5,530;   -0,440; 6,94000
 236,97;   22,940;   -0,100;    4,160;23,04000
 237,32;   14,930;    7,370;   -3,280; 7,56000
 237,66;   16,360;   -0,040;    7,650;16,40000
 238,00;   16,780;   -2,400;    0,290;19,18000
 238,35;   18,080;    1,380;   -7,850;16,70000
 238,69;   20,600;    1,540;   29,260;19,06000
 239,03;   16,480;    5,070;   65,740;11,41000
 239,38;   17,950;    7,220;    3,060;10,73000
 239,72;   18,080;    4,660;    0,310;13,42000
 240,06;   11,700;    0,710;    2,810;10,99000
 240,41;   15,680;    0,200;    0,290;15,48000
 240,75;   18,920;   -3,610;    2,750;22,53000
 241,10;   18,510;   -0,450;    4,230;18,96000
 241,44;   27,800;    4,100;   -0,270;23,70000
 241,78;   12,820;   -1,180;    3,450;14,00000
 242,13;   23,950;    6,690;   -2,120;17,26000
 242,47;   17,330;    1,060;   -4,250;16,27000
 242,81;   14,000;    4,080;    4,680; 9,92000
 243,16;   14,520;   -3,560;    1,580;18,08000
 243,50;   18,960;    8,210;   -2,120;10,75000
 243,84;   17,520;    3,650;   -1,390;13,87000
 244,19;   25,890;    6,970;    1,600;18,92000
 244,53;   18,320;    5,270;   -0,360;13,05000
 244,87;   12,390;    5,070;    6,880; 7,32000
 245,22;   14,890;   -4,930;    1,260;19,82000
 245,56;   18,260;    5,800;   -5,670;12,46000
 245,90;   20,690;   -6,390;   -2,740;27,08000
 246,25;   19,020;    6,820;    6,490;12,20000
 246,59;   12,200;   -0,570;   -3,700;12,77000
 246,93;   22,450;    2,300;    2,990;20,15000
 247,28;   16,740;   -0,200;    6,300;16,94000
 247,62;   13,360;    2,240;   -1,330;11,12000
 247,96;   23,210;   -1,880;    3,460;25,09000
 248,31;   23,380;    0,810;    0,160;22,57000
 248,65;   17,790;   -1,220;    3,570;19,01000
 248,99;   14,680;    3,160;    2,260;11,52000
 249,34;   20,760;   -3,090;   -0,370;23,85000
 249,68;   19,100;   -2,680;   -2,150;21,78000
 250,02;   19,930;   -1,620;    0,690;21,55000
 250,37;   25,460;    0,220;    4,070;25,24000
 250,71;   24,450;    6,230;    0,790;18,22000
 251,05;   18,130;    5,030;    0,850;13,10000
 251,40;    6,580;  -16,710;    3,460;23,29000
 251,74;   45,590;   33,770;    1,420;11,82000
 252,08;   74,060;   63,240;    1,190;10,82000
 252,43;   25,370;   -0,100;    3,090;25,47000
 252,77;   13,620;   -2,560;   -0,850;16,18000
 253,11;   13,120;    3,410;   -1,730; 9,71000
 253,46;   20,700;    5,340;    3,910;15,36000
 253,80;   16,030;    5,150;    7,110;10,88000
 254,14;   16,480;   -2,210;   -3,160;18,69000
 254,49;   18,540;    5,650;    0,370;12,89000
 254,83;   13,300;    5,200;    6,060; 8,10000
 255,17;   19,740;   -2,830;    0,870;22,57000
 255,52;   17,460;   -3,400;    3,320;20,86000
 255,86;   19,860;    2,290;    3,840;17,57000
 256,20;   15,350;   -2,420;    2,190;17,77000
 256,55;   23,790;    3,960;    6,800;19,83000
 256,89;   22,440;   -1,320;   -0,420;23,76000
 257,23;   16,590;    2,140;    4,740;14,45000
 257,57;   18,270;   -1,120;    0,680;19,39000
 257,92;   16,700;    6,090;    9,660;10,61000
 258,26;   13,710;   -0,790;    9,410;14,50000
 258,60;   14,940;    4,550;    0,980;10,39000
 258,95;    8,820;    5,670;    1,980; 3,15000
 259,29;   14,140;    7,760;    1,870; 6,38000
 259,63;   22,350;   -1,610;    2,470;23,96000
 259,98;   19,850;    1,310;    4,950;18,54000
 260,32;   14,850;    5,910;    3,060; 8,94000
 260,66;   14,440;    2,550;   -0,240;11,89000
 261,01;   23,170;    1,140;   -0,910;22,03000
 261,35;   18,610;    0,430;    2,840;18,18000
 261,69;   11,740;   -2,620;    2,780;14,36000
 262,03;   16,780;    1,470;    1,400;15,31000
 262,38;   15,670;   -2,230;   -3,040;17,90000
 262,72;   25,200;   -0,800;    1,950;26,00000
 263,06;   18,680;   -6,590;    3,560;25,27000
 263,41;   20,920;    2,750;    2,600;18,17000
 263,75;   18,550;    4,650;    2,850;13,90000
 264,09;   18,930;    6,420;   -0,340;12,51000
 264,44;   19,460;   -1,110;   -0,250;20,57000
 264,78;   20,400;    6,300;   -1,930;14,10000
 265,12;   18,140;   -1,580;    5,230;19,72000
 265,46;   21,760;    6,890;    2,600;14,87000
 265,81;   13,560;   -0,810;    1,280;14,37000
 266,15;   16,210;    3,030;    4,320;13,18000
 266,49;    7,860;    1,160;    3,370; 6,70000
 266,84;   19,330;    7,130;    2,340;12,20000
 267,18;   11,790;   -0,760;    0,120;12,55000
 267,52;   23,050;    6,080;   -0,950;16,97000
 267,86;   16,530;    4,370;    0,400;12,16000
 268,21;   24,510;    5,840;    4,770;18,67000
 268,55;   21,380;    2,410;    1,950;18,97000
 268,89;   19,020;   10,360;    8,760; 8,66000
 269,24;   20,240;    0,490;   -1,610;19,75000
 269,58;   22,790;    8,770;    1,950;14,02000
 269,92;   16,540;   -5,160;   -3,810;21,70000
 270,26;   22,060;    3,620;    5,370;18,44000
 270,61;   15,760;   -2,220;    2,330;17,98000
 270,95;   22,290;    3,720;    2,940;18,57000
 271,29;   15,750;   -2,810;   -4,650;18,56000
 271,64;   22,970;   -1,610;   -0,820;24,58000
 271,98;   18,640;   -2,260;    5,320;20,90000
 272,32;   15,630;    8,270;    2,520; 7,36000
 272,66;   12,250;    0,580;    3,640;11,67000
 273,01;   20,080;    2,020;    3,890;18,06000
 273,35;   20,000;   -3,930;   -2,080;23,93000
 273,69;   24,250;    4,290;    7,650;19,96000
 274,03;   16,100;    2,210;   -0,080;13,89000
 274,38;   24,010;   -0,420;    2,800;24,43000
 274,72;   18,060;   -1,470;    0,930;19,53000
 275,06;   21,570;   -3,140;    4,260;24,71000
 275,40;   16,540;   -2,760;    2,190;19,30000
 275,75;   21,340;    4,760;   -1,670;16,58000
 276,09;   21,890;   -0,770;    2,750;22,66000
 276,43;   20,370;    1,290;    3,420;19,08000
 276,78;   20,870;   -0,390;    3,970;21,26000
 277,12;   20,730;   -2,000;    4,080;22,73000
 277,46;   21,060;   -3,820;   -1,400;24,88000
 277,80;   18,440;    1,670;    2,660;16,77000
 278,15;   11,690;   -4,710;    0,990;16,40000
 278,49;   16,010;    2,820;    3,910;13,19000
 278,83;   13,530;   -1,350;   -0,830;14,88000
 279,17;   23,590;    2,350;    7,910;21,24000
 279,52;   20,870;    0,060;    0,670;20,81000
 279,86;   21,720;    1,500;    3,730;20,22000
 280,20;   21,840;   -0,850;   -0,050;22,69000
 280,54;   19,200;    0,020;    4,110;19,18000
 280,89;   14,690;    2,700;    2,930;11,99000
 281,23;   23,600;    6,170;    7,110;17,43000
 281,57;   22,120;    0,410;    3,900;21,71000
 281,91;   21,070;    2,070;    9,620;19,00000
 282,26;   20,170;    0,700;   -0,770;19,47000
 282,60;   26,190;    1,350;    3,260;24,84000
 282,94;   17,390;   -3,140;   -6,700;20,53000
 283,28;   23,340;   -1,650;    8,220;24,99000
 283,63;   22,400;    2,290;    3,300;20,11000
 283,97;   20,910;   -4,090;   -2,370;25,00000
 284,31;   15,510;   -1,030;    1,490;16,54000
 284,65;   21,660;    3,370;    0,930;18,29000
 285,00;   14,550;   -1,510;    0,170;16,06000
 285,34;   25,970;    5,200;    2,250;20,77000
 285,68;   13,040;   -9,450;    4,600;22,49000
 286,02;   18,770;    6,440;    2,930;12,33000
 286,37;   21,910;   -2,720;   -2,100;24,63000
 286,71;   17,240;    0,260;    9,880;16,98000
 287,05;   22,480;    2,020;    0,770;20,46000
 287,39;   23,090;   -5,230;    3,340;28,32000
 287,73;   13,910;    0,980;   -0,150;12,93000
 288,08;   22,910;    8,020;    4,200;14,89000
 288,42;   20,090;    0,220;   -0,810;19,87000
 288,76;   22,540;   -4,560;    1,980;27,10000
 289,10;   22,920;    4,030;   -2,180;18,89000
 289,45;   22,200;    4,230;    2,290;17,97000
 289,79;   19,030;   -2,510;    2,270;21,54000
 290,13;   15,330;    4,020;    7,880;11,31000
 290,47;   24,300;   -3,250;   -1,950;27,55000
 290,82;   18,730;   -2,370;    3,070;21,10000
 291,16;   18,630;   -5,620;   -1,830;24,25000
 291,50;   18,940;    6,570;   -0,810;12,37000
 291,84;   21,730;    6,720;   -1,240;15,01000
 292,18;   27,260;    3,400;    7,510;23,86000
 292,53;   17,560;   -0,920;    2,270;18,48000
 292,87;   23,980;   -0,670;    6,240;24,65000
 293,21;   21,820;    0,680;   -3,400;21,14000
 293,55;   20,200;   -5,030;    7,800;25,23000
 293,90;   26,000;    4,300;    1,580;21,70000
 294,24;   17,600;    3,570;    2,360;14,03000
 294,58;   16,310;   -6,140;   -2,350;22,45000
 294,92;   25,120;    2,430;    4,480;22,69000
 295,26;   17,850;   -5,600;   -0,060;23,45000
 295,61;   17,150;   -3,700;    2,590;20,85000
 295,95;   14,140;   -3,550;    2,900;17,69000
 296,29;   20,470;   -3,340;    2,790;23,81000
 296,63;   23,830;    1,010;    1,350;22,82000
 296,97;   23,550;   -1,790;    3,880;25,34000
 297,32;   23,690;   -2,130;   -4,280;25,82000
 297,66;   23,110;    0,930;   -0,620;22,18000
 298,00;   18,000;   -1,520;    3,450;19,52000
 298,34;   26,940;    5,060;    0,800;21,88000
 298,69;   14,440;    2,820;    2,400;11,62000
 299,03;   20,240;   -4,000;    1,820;24,24000
 299,37;   20,840;   -2,050;   -0,940;22,89000
 299,71;   18,910;   -0,060;   -1,460;18,97000
 300,05;   24,180;    2,230;   -0,590;21,95000
 300,40;   22,450;    3,650;    5,780;18,80000
 300,74;   19,580;    2,520;    3,080;17,06000
 301,08;   22,800;    2,150;    9,750;20,65000
 301,42;   19,460;   -0,770;    0,430;20,23000
 301,76;   21,980;    0,770;    3,560;21,21000
 302,11;   21,370;   -1,950;    1,560;23,32000
 302,45;   26,620;   -4,630;    3,060;31,25000
 302,79;   17,370;   -3,190;   -0,070;20,56000
 303,13;   26,620;    2,900;    0,920;23,72000
 303,47;   22,860;    1,780;    2,590;21,08000
 303,81;   16,900;    4,320;    6,370;12,58000
 304,16;   24,460;   -5,410;    0,950;29,87000
 304,50;   15,490;    7,380;    5,220; 8,11000
 304,84;   13,760;   -6,790;    3,500;20,55000
 305,18;   17,720;    4,920;    3,990;12,80000
 305,52;   21,370;    6,110;    0,240;15,26000
 305,87;   21,150;   -0,510;   -3,520;21,66000
 306,21;   15,070;    3,850;   -4,610;11,22000
 306,55;   22,880;    1,780;    2,670;21,10000
 306,89;   25,360;    2,950;    2,350;22,41000
 307,23;   21,310;    6,360;    1,320;14,95000
 307,58;   20,720;   -1,910;    1,880;22,63000
 307,92;   18,490;    2,260;    4,640;16,23000
 308,26;   23,030;   -2,240;   -1,550;25,27000
 308,60;   25,420;    2,620;    1,660;22,80000
 308,94;   18,070;    3,640;   -0,860;14,43000
 309,28;   22,900;    1,350;    3,500;21,55000
 309,63;   20,990;   -0,900;   -2,560;21,89000
 309,97;   25,780;    1,020;   10,570;24,76000
 310,31;   25,070;    1,340;   -0,100;23,73000
 310,65;   20,110;    1,290;    3,820;18,82000
 310,99;   17,840;   -1,230;    2,240;19,07000
 311,33;   25,090;    1,290;    2,420;23,80000
 311,68;   25,360;   -2,370;    0,600;27,73000
 312,02;   26,550;    1,980;  -15,330;24,57000
 312,36;   25,540;   -2,070;   23,440;27,61000
 312,70;   23,840;    6,510;   61,440;17,33000
 313,04;   16,160;   -2,050;    1,810;18,21000
 313,38;   27,410;   -3,640;   -3,880;31,05000
 313,73;   18,970;    0,310;   -2,470;18,66000
 314,07;   27,590;   10,250;    5,190;17,34000
 314,41;   17,150;   -1,580;    4,040;18,73000
 314,75;   28,460;   -2,070;    5,810;30,53000
 315,09;   21,620;    5,610;    1,100;16,01000
 315,43;   20,570;    3,730;    5,490;16,84000
 315,78;   22,680;    2,900;    0,860;19,78000
 316,12;   23,080;    2,090;    5,920;20,99000
 316,46;   17,500;   -8,560;    5,510;26,06000
 316,80;   18,130;    5,210;    1,790;12,92000
 317,14;   21,970;    5,860;    3,890;16,11000
 317,48;   26,530;    0,720;    3,190;25,81000
 317,83;   19,130;    1,350;   -3,050;17,78000
 318,17;   22,160;    4,410;    1,620;17,75000
 318,51;   22,360;   -0,470;    1,140;22,83000
 318,85;   18,320;    7,550;   -1,100;10,77000
 319,19;   15,990;   -1,720;   -3,990;17,71000
 319,53;   19,350;    0,210;    9,450;19,14000
 319,87;   20,090;   -2,600;   -3,650;22,69000
 320,22;   24,440;   -1,880;    8,080;26,32000
 320,56;   20,330;    0,590;    3,190;19,74000
 320,90;   24,810;   -2,030;    7,300;26,84000
 321,24;   15,990;   -0,220;    8,820;16,21000
 321,58;   24,230;    5,220;   -2,580;19,01000
 321,92;   20,400;   -1,380;   -1,490;21,78000
 322,26;   24,830;    2,020;   -3,760;22,81000
 322,61;   18,990;   -0,480;    3,520;19,47000
 322,95;   17,980;    1,150;    0,190;16,83000
 323,29;   14,820;   -4,290;    2,140;19,11000
 323,63;   20,780;    2,440;    1,200;18,34000
 323,97;   21,190;   -3,090;    2,870;24,28000
 324,31;   19,770;    1,170;    0,730;18,60000
 324,65;   23,130;    3,430;    5,680;19,70000
 325,00;   23,190;   -1,760;    2,660;24,95000
 325,34;   26,640;    0,140;   -0,430;26,50000
 325,68;   24,090;    1,810;   -0,890;22,28000
 326,02;   29,290;    4,490;    4,820;24,80000
 326,36;   23,250;    1,140;    3,430;22,11000
 326,70;   30,830;    0,790;   -1,680;30,04000
 327,04;   21,190;    2,180;    4,730;19,01000
 327,38;   20,010;    0,770;    2,400;19,24000
 327,73;   22,890;    2,100;    4,930;20,79000
 328,07;   19,680;   -0,420;    3,290;20,10000
 328,41;   21,340;    4,270;    1,050;17,07000
 328,75;   21,810;   -3,520;    1,850;25,33000
 329,09;   21,260;    2,030;    1,130;19,23000
 329,43;   26,730;   -4,370;    0,440;31,10000
 329,77;   24,300;    5,380;    3,080;18,92000
 330,11;   17,940;    1,920;   -2,830;16,02000
 330,46;   31,920;    0,870;    3,940;31,05000
 330,80;   21,770;    1,770;   -1,490;20,00000
 331,14;   21,210;    3,520;    2,840;17,69000
 331,48;   29,750;   -5,420;    1,950;35,17000
 331,82;   18,050;    9,840;    5,330; 8,21000
 332,16;   23,290;   -2,590;   -5,490;25,88000
 332,50;   20,740;   -0,490;    0,370;21,23000
 332,84;   20,170;   -6,950;    4,550;27,12000
 333,18;   20,940;   -3,980;    3,170;24,92000
 333,53;   21,240;    1,570;   -1,670;19,67000
 333,87;   24,990;   -0,500;    4,960;25,49000
 334,21;   24,300;   -4,640;    4,440;28,94000
 334,55;   26,500;   -0,530;    2,210;27,03000
 334,89;   24,040;   -2,930;    2,760;26,97000
 335,23;   25,440;    7,430;   -0,890;18,01000
 335,57;   26,770;    7,540;    2,290;19,23000
 335,91;   23,630;   -3,400;    4,710;27,03000
 336,25;   21,860;    0,600;    4,970;21,26000
 336,60;   25,720;    4,510;    1,540;21,21000
 336,94;   23,010;    1,120;   -0,280;21,89000
 337,28;   23,890;    0,820;    2,850;23,07000
 337,62;   16,240;   -1,550;   -0,390;17,79000
 337,96;   14,130;   -8,520;    2,040;22,65000
 338,30;   48,950;   27,330;    1,880;21,62000
 338,64;   92,550;   61,920;    6,570;30,63000
 338,98;   20,130;    5,670;   -2,000;14,46000
 339,32;   24,160;    5,090;    0,460;19,07000
 339,66;   20,280;    2,970;   -0,800;17,31000
 340,01;   23,670;   -1,950;    1,760;25,62000
 340,35;   21,860;    0,130;   -0,530;21,73000
 340,69;   21,270;    8,670;    3,300;12,60000
 341,03;   24,900;   -1,260;    2,970;26,16000
 341,37;   23,860;    4,590;    6,070;19,27000
 341,71;   24,520;    2,480;   -3,260;22,04000
 342,05;   30,060;    8,320;    2,520;21,74000
 342,39;   25,990;   -3,890;    1,510;29,88000
 342,73;   22,800;   -3,650;    2,250;26,45000
 343,07;   16,230;    0,790;   -2,210;15,44000
 343,41;   27,670;    0,690;    1,990;26,98000
 343,75;   17,980;    0,350;   -5,070;17,63000
 344,10;   28,090;   -1,330;   -0,490;29,42000
 344,44;   31,580;    2,000;    4,160;29,58000
 344,78;   30,150;    0,960;    3,320;29,19000
 345,12;   21,660;   -1,240;   -2,100;22,90000
 345,46;   30,180;    1,080;    3,260;29,10000
 345,80;   18,520;    4,190;    4,200;14,33000
 346,14;   29,110;    3,150;    7,400;25,96000
 346,48;   26,320;    1,710;    7,670;24,61000
 346,82;   29,790;    3,760;    2,900;26,03000
 347,16;   25,310;    0,650;   -0,380;24,66000
 347,50;   24,000;    4,800;    4,620;19,20000
 347,84;   27,360;    1,400;   -0,340;25,96000
 348,18;   26,190;    2,540;    0,100;23,65000
 348,53;   22,190;    1,070;    7,220;21,12000
 348,87;   31,260;    5,420;    4,640;25,84000
 349,21;   23,250;   -1,690;    1,010;24,94000
 349,55;   23,840;    2,680;   -1,310;21,16000
 349,89;   30,850;   -0,360;    3,290;31,21000
 350,23;   24,160;   -3,110;   -0,650;27,27000
 350,57;   19,190;    3,550;    1,280;15,64000
 350,91;   28,380;   10,920;    2,260;17,46000
 351,25;   19,100;   -2,160;    2,890;21,26000
 351,59;   26,180;   -1,580;    8,760;27,76000
 351,93;   19,350;   -5,930;    3,960;25,28000
 352,27;   23,510;   10,190;    5,210;13,32000
 352,61;   25,530;   -0,190;    2,680;25,72000
 352,95;   18,900;    0,420;    7,500;18,48000
 353,29;   20,870;    5,110;    0,070;15,76000
 353,63;   26,450;   -5,890;   -3,240;32,34000
 353,98;   21,300;    1,310;   -1,200;19,99000
 354,32;   20,330;   -1,950;   -3,600;22,28000
 354,66;   25,380;   -4,980;   -0,790;30,36000
 355,00;   22,660;    5,930;    4,110;16,73000
 355,34;   26,550;    4,060;   -0,090;22,49000
 355,68;   27,920;    1,550;   -3,200;26,37000
 356,02;   24,790;   -3,970;   -0,450;28,76000
 356,36;   24,140;    5,980;    9,920;18,16000
 356,70;   22,520;   -5,410;    3,200;27,93000
 357,04;   23,450;    1,410;    4,710;22,04000
 357,38;   18,210;    3,960;    0,020;14,25000
 357,72;    9,150;    1,640;    5,560; 7,51000
 358,06;   30,470;    3,010;   -2,100;27,46000
 358,40;   30,090;    5,860;   -2,150;24,23000
 358,74;   30,960;   -2,010;    4,930;32,97000
 359,08;   25,190;    0,910;    3,100;24,28000
 359,42;   24,070;   -0,030;    0,930;24,10000
 359,76;   32,490;   -1,430;    7,260;33,92000
 360,10;   30,250;   -3,670;   -0,030;33,92000
 360,44;   25,130;    6,270;   -0,080;18,86000
 360,78;   30,860;    3,260;   -0,890;27,60000
 361,12;   31,720;    1,260;    2,740;30,46000
 361,46;   21,240;   -0,890;    2,110;22,13000
 361,80;   21,260;    3,500;   -1,090;17,76000
 362,15;   22,870;    2,350;   -2,300;20,52000
 362,49;   20,740;    3,440;    3,670;17,30000
 362,83;   29,040;    7,790;    1,900;21,25000
 363,17;   26,640;   -1,050;    6,090;27,69000
 363,51;   27,650;   -3,500;   -0,830;31,15000
 363,85;   32,410;    0,760;    2,930;31,65000
 364,19;   26,620;    0,280;    3,810;26,34000
 364,53;   29,200;   -0,620;   -3,340;29,82000
 364,87;   23,670;   -4,260;    4,170;27,93000
 365,21;   21,010;    5,450;    1,720;15,56000
 365,55;   30,220;   -3,160;    0,380;33,38000
 365,89;   27,340;    9,220;    8,710;18,12000
 366,23;   20,650;   -1,590;    4,580;22,24000
 366,57;   21,480;    7,820;    5,580;13,66000
 366,91;   26,860;   -3,550;   -0,610;30,41000
 367,25;   25,010;   -1,600;    2,390;26,61000
 367,59;   25,180;    0,780;    1,360;24,40000
 367,93;   28,940;    5,560;    2,410;23,38000
 368,27;   31,310;   -4,650;   -2,920;35,96000
 368,61;   31,770;    7,230;    2,710;24,54000
 368,95;   23,190;   -4,480;    3,060;27,67000
 369,29;   25,780;    4,540;    1,940;21,24000
 369,63;   19,910;    2,010;   -4,530;17,90000
 369,97;   26,200;    5,790;    2,720;20,41000
 370,31;   21,880;   -0,190;    2,380;22,07000
 370,65;   28,870;   -2,000;    6,590;30,87000
 370,99;   29,430;    3,060;    3,990;26,37000
 371,33;   25,310;    0,890;   -2,590;24,42000
 371,67;   25,540;   -6,990;    2,270;32,53000
 372,01;   30,550;    4,420;    4,790;26,13000
 372,35;   22,280;   -4,540;    3,510;26,82000
 372,69;   25,290;    6,690;    8,190;18,60000
 373,03;   22,720;   -4,740;    0,530;27,46000
 373,37;   25,770;    3,060;   -4,260;22,71000
 373,71;   23,880;   -0,020;   -6,870;23,90000
 374,05;   25,040;    7,180;    5,720;17,86000
 374,39;   22,080;    0,370;    5,190;21,71000
 374,73;   29,720;    3,790;    4,230;25,93000
 375,07;   26,480;    4,200;    5,730;22,28000
 375,41;   23,760;   -2,610;    6,040;26,37000
 375,75;   21,560;    2,350;   -1,440;19,21000
 376,09;   27,850;    1,670;    2,410;26,18000
 376,43;   22,310;   -2,240;   -5,140;24,55000
 376,77;   36,330;    2,170;    2,020;34,16000
 377,11;   15,120;    3,300;    2,730;11,82000
 377,45;   24,450;    8,730;    1,040;15,72000
 377,79;   27,880;    0,570;   -7,090;27,31000
 378,13;   20,540;    5,010;   10,500;15,53000
 378,47;   23,710;   -5,230;   -0,100;28,94000
 378,81;   29,290;   -3,520;   -2,430;32,81000
 379,15;   24,210;    2,330;    4,630;21,88000
 379,49;   25,060;    1,760;    7,300;23,30000
 379,83;   22,090;    1,850;   -3,710;20,24000
 380,17;   30,410;    4,500;    1,040;25,91000
 380,51;   24,710;    2,220;    5,750;22,49000
 380,85;   25,870;    4,060;   -1,870;21,81000
 381,19;   28,770;    4,710;   -2,690;24,06000
 381,53;   28,000;    3,760;    0,410;24,24000
 381,87;   20,410;    4,690;    2,200;15,72000
 382,21;   23,180;    2,070;    3,600;21,11000
 382,55;   28,520;    1,800;    6,140;26,72000
 382,89;   30,960;    0,120;    4,530;30,84000
 383,23;   30,060;   -1,840;   -0,420;31,90000
 383,56;   30,310;    3,750;   -2,320;26,56000
 383,90;   28,370;    1,990;    0,330;26,38000
 384,24;   32,630;    3,300;    1,240;29,33000
 384,58;   27,690;   -5,510;    3,450;33,20000
 384,92;   26,360;    2,310;    2,060;24,05000
 385,26;   22,570;    5,360;  -11,440;17,21000
 385,60;   26,720;    3,090;   33,870;23,63000
 385,94;   27,320;   -5,580;   59,610;32,90000
 386,28;   30,150;    5,250;   -1,900;24,90000
 386,62;   23,510;    0,060;    7,620;23,45000
 386,96;   33,330;    6,170;    1,740;27,16000
 387,30;   26,360;    1,750;   -0,690;24,61000
 387,64;   21,240;    1,050;    9,570;20,19000
 387,98;   25,790;   -0,960;   -1,160;26,75000
 388,32;   26,520;    2,430;    3,260;24,09000
 388,66;   30,100;    4,950;    2,420;25,15000
 389,00;   26,510;   -1,320;    4,520;27,83000
 389,34;   30,580;   -3,990;   -0,240;34,57000
 389,68;   32,310;   -7,120;    3,370;39,43000
 390,02;   19,120;   -3,640;    0,880;22,76000
 390,36;   32,990;   -3,290;    4,370;36,28000
 390,70;   24,760;   -8,450;   -2,130;33,21000
 391,04;   26,370;   -2,610;    4,320;28,98000
 391,38;   31,030;    0,670;    0,090;30,36000
 391,71;   32,070;    8,020;    2,280;24,05000
 392,05;   33,500;   -4,120;    5,720;37,62000
 392,39;   28,510;    0,980;    1,990;27,53000
 392,73;   27,220;    4,500;   -0,370;22,72000
 393,07;   33,190;   -0,600;    2,500;33,79000
 393,41;   32,560;   -6,150;    0,940;38,71000
 393,75;   34,600;    5,190;   -2,340;29,41000
 394,09;   31,310;   -0,890;    3,860;32,20000
 394,43;   29,190;    3,510;    1,470;25,68000
 394,77;   25,290;   -1,060;   -5,040;26,35000
 395,11;   35,630;    1,770;   -1,530;33,86000
 395,45;   37,060;   -2,030;    0,150;39,09000
 395,79;   32,340;    4,480;    8,430;27,86000
 396,13;   32,740;    2,460;    2,220;30,28000
 396,47;   38,920;    3,600;    2,580;35,32000
 396,81;   38,140;    4,580;    4,350;33,56000
 397,14;   42,230;    4,790;    4,250;37,44000
 397,48;   39,110;   -4,180;    1,190;43,29000
 397,82;   37,330;    1,700;    4,150;35,63000
 398,16;   37,830;   -2,490;    4,190;40,32000
 398,50;   45,550;    6,350;    7,140;39,20000
 398,84;   46,620;   -0,340;   -0,610;46,96000
 399,18;   45,110;    7,430;   -1,870;37,68000
 399,52;   40,310;    4,790;    0,490;35,52000
 399,86;   51,100;    6,830;    1,400;44,27000
 400,20;   47,190;   -4,560;   -3,620;51,75000
 400,54;   54,870;    6,820;    2,300;48,05000
 400,88;   55,670;    3,290;   -4,160;52,38000
 401,22;   61,720;    1,110;   -0,530;60,61000
 401,55;   60,060;   10,890;   -3,210;49,17000
 401,89;   73,610;    3,760;    8,670;69,85000
 402,23;   58,770;   -0,850;    6,130;59,62000
 402,57;   59,940;    7,160;    4,770;52,78000
 402,91;   72,270;   -2,360;    1,650;74,63000
 403,25;   73,150;   -5,120;    3,690;78,27000
 403,59;   74,390;   -0,470;    1,960;74,86000
 403,93;   86,680;   -0,670;    7,590;87,35000
 404,27;   79,320;   -0,520;   -1,950;79,84000
 404,61;   91,110;    1,610;   -0,370;89,50000
 404,95;  101,630;   -0,880;    0,380;102,51000
 405,28;  102,730;    1,680;    8,580;101,05000
 405,62;  107,900;   -0,140;    1,890;108,04000
 405,96;  120,920;    1,950;    2,710;118,97000
 406,30;  124,230;    5,120;   -4,150;119,11000
 406,64;  125,880;    5,260;    1,360;120,62000
 406,98;  140,300;   -2,100;   -1,920;142,40000
 407,32;  142,000;    3,910;    1,550;138,09000
 407,66;  165,140;   -1,090;    3,360;166,23000
 408,00;  172,140;    1,290;    1,610;170,85000
 408,34;  172,790;   -3,140;   -6,670;175,93000
 408,67;  188,510;    4,070;   -1,990;184,44000
 409,01;  208,830;    1,770;    2,160;207,06000
 409,35;  207,760;    3,030;    8,550;204,73000
 409,69;  228,370;    3,060;    3,070;225,31000
 410,03;  244,280;    5,330;   -1,620;238,95000
 410,37;  269,300;   -0,780;   -5,310;270,08000
 410,71;  281,540;   -3,670;    2,520;285,21000
 411,05;  320,470;   -2,890;    3,940;323,36000
 411,39;  330,430;    2,990;    6,160;327,44000
 411,72;  331,990;   -0,620;    0,630;332,61000
 412,06;  359,420;    0,980;    5,330;358,44000
 412,40;  403,350;   -5,090;    3,100;408,44000
 412,74;  443,550;    3,540;    0,490;440,01000
 413,08;  471,150;   -1,910;    0,910;473,06000
 413,42;  503,350;    5,010;    5,270;498,34000
 413,76;  524,920;   -0,100;    3,260;525,02000
 414,10;  558,380;    3,160;    4,470;555,22000
 414,44;  566,700;   -5,230;   -4,520;571,93000
 414,77;  652,830;    5,710;   -3,320;647,12000
 415,11;  707,320;    1,650;    1,630;705,67000
 415,45;  781,300;    1,770;    6,710;779,53000
 415,79;  766,630;   -0,590;   -2,010;767,22000
 416,13;  815,090;    3,480;    7,230;811,61000
 416,47;  855,190;   -1,720;   -1,380;856,91000
 416,81;  915,290;    1,670;    4,880;913,62000
 417,15;  971,500;   -2,150;    8,810;973,65000
 417,48; 1114,350;    1,800;    7,260;1112,55000
 417,82; 1174,280;    4,070;    5,450;1170,21000
 418,16; 1151,970;    9,070;   -1,950;1142,90000
 418,50; 1309,790;   -2,240;   -3,870;1312,03000
 418,84; 1377,110;    2,530;    4,950;1374,58000
 419,18; 1508,970;   -0,570;   -5,380;1509,54000
 419,52; 1522,210;   -1,510;    3,310;1523,72000
 419,85; 1658,560;    2,780;   -1,450;1655,78000
 420,19; 1771,060;    3,280;    3,320;1767,78000
 420,53; 1796,430;    0,470;    1,230;1795,96000
 420,87; 1961,280;    3,840;    4,470;1957,44000
 421,21; 2147,870;   -4,040;    8,320;2151,91000
 421,55; 2275,730;    4,410;    1,960;2271,32000
 421,89; 2318,070;    3,420;   -3,940;2314,65000
 422,22; 2477,690;    9,610;    4,640;2468,08000
 422,56; 2547,020;   -2,430;    0,050;2549,45000
 422,90; 2669,460;   -5,180;    7,810;2674,64000
 423,24; 2960,840;    9,720;    0,360;2951,12000
 423,58; 2830,130;    0,850;    7,660;2829,28000
 423,92; 3401,510;  -10,550;   -1,020;3412,06000
 424,26; 3612,720;   34,540;    0,610;3578,18000
 424,59; 3737,370;   63,150;   -2,350;3674,22000
 424,93; 3969,860;    3,700;    3,240;3966,16000
 425,27; 4006,090;    2,020;    2,000;4004,07000
 425,61; 4185,390;   -3,240;    1,440;4188,63000
 425,95; 4375,940;    3,580;    0,380;4372,36000
 426,29; 4460,450;    1,480;    0,440;4458,97000
 426,62; 5051,920;    5,340;    9,480;5046,58000
 426,96; 4942,520;   -1,190;    1,960;4943,71000
 427,30; 5316,030;    0,130;   -3,270;5315,90000
 427,64; 5535,210;    4,730;    1,560;5530,48000
 427,98; 5622,180;   -0,620;    4,510;5622,80000
 428,32; 6078,840;    0,280;    3,620;6078,56000
 428,65; 6405,510;   -3,620;    0,270;6409,13000
 428,99; 6933,520;    5,740;    2,990;6927,78000
 429,33; 6646,270;    0,420;    1,180;6645,85000
 429,67; 6862,160;    2,450;    5,380;6859,71000
 430,01; 7447,430;   -1,960;   -0,520;7449,39000
 430,35; 7938,750;    2,340;    4,970;7936,41000
 430,68; 8460,750;    1,650;   -0,330;8459,10000
 431,02; 8123,650;   -0,240;    4,850;8123,89000
 431,36; 9327,810;   -0,210;    1,100;9328,02000
 431,70; 9010,320;   -1,380;    5,090;9011,70000
 432,04; 9372,480;   -4,300;   -1,580;9376,78000
 432,38;10332,210;    0,550;    5,880;10331,66000
 432,71;10897,930;    4,740;    3,300;10893,19000
 433,05;10744,640;    6,070;    4,190;10738,57000
 433,39;10700,940;    6,220;    0,230;10694,72000
 433,73;11745,040;   -1,620;   -5,160;11746,66000
 434,07;12290,990;   -3,640;    0,870;12294,63000
 434,41;12326,360;   -0,450;    3,120;12326,81000
 434,74;12385,260;   -1,210;   -3,120;12386,47000
 435,08;13633,750;   -4,330;    3,140;13638,08000
 435,42;14489,980;    2,950;   -0,680;14487,03000
 435,76;14714,190;   -0,190;    7,110;14714,38000
 436,10;15377,420;    1,830;   -1,600;15375,59000
 436,43;15306,540;    1,840;   -3,020;15304,70000
 436,77;15976,150;    0,580;    5,450;15975,57000
 437,11;17518,330;    7,710;    2,250;17510,62000
 437,45;17503,530;    1,460;    5,160;17502,07000
 437,79;17510,320;   -1,160;    1,970;17511,48000
 438,12;18916,870;   -3,100;   -2,740;18919,97000
 438,46;20519,400;    3,260;    1,690;20516,14000
 438,80;20635,720;    0,590;   -2,840;20635,13000
 439,14;20961,030;    0,790;   -1,260;20960,24000
 439,48;23680,130;   -2,280;    1,780;23682,41000
 439,81;23199,240;    3,820;   -2,440;23195,42000
 440,15;24067,090;    0,880;   -0,800;24066,21000
 440,49;24333,440;    9,710;    6,490;24323,73000
 440,83;25645,170;   -4,390;   -2,880;25649,56000
 441,17;27396,530;    5,320;    1,020;27391,21000
 441,50;29310,210;   -4,590;    6,310;29314,80000
 441,84;30039,800;    4,010;    2,470;30035,79000
 442,18;29812,940;    0,250;    2,490;29812,69000
 442,52;31577,680;    2,750;    0,850;31574,93000
 442,86;31098,660;    5,700;    2,850;31092,96000
 443,19;33336,930;   -1,800;    3,530;33338,73000
 443,53;37114,610;    0,460;    3,990;37114,15000
 443,87;37292,880;    2,110;    0,620;37290,77000
 444,21;36278,820;    2,190;   -0,190;36276,63000
 444,55;36018,690;   -0,420;   -1,810;36019,11000
 444,88;39425,290;    5,640;    6,350;39419,65000
 445,22;41053,450;   -0,040;    3,220;41053,49000
 445,56;40882,800;   -1,130;    1,360;40883,93000
 445,90;40057,170;    1,280;    6,110;40055,89000
 446,23;40409,460;   -2,310;   -4,600;40411,77000
 446,57;40315,460;   -1,030;   -3,300;40316,49000
 446,91;41905,950;    2,940;    3,300;41903,01000
 447,25;42197,240;    1,990;   -3,760;42195,25000
 447,59;41981,460;   -3,630;   -1,610;41985,09000
 447,92;44094,030;    8,890;   -1,410;44085,14000
 448,26;44497,650;    1,510;    0,750;44496,14000
 448,60;41392,500;    2,920;    1,180;41389,58000
 448,94;42474,750;    0,700;    3,350;42474,05000
 449,27;41240,930;    3,480;   -0,710;41237,45000
 449,61;41453,990;    0,510;    0,300;41453,48000
 449,95;41241,230;    7,200;    2,060;41234,03000
 450,29;40492,620;    1,030;    2,850;40491,59000
 450,63;38897,970;    7,430;    0,820;38890,54000
 450,96;40163,930;    1,670;   -7,790;40162,26000
 451,30;38921,460;    0,650;    4,530;38920,81000
 451,64;39066,630;    2,150;   -1,050;39064,48000
 451,98;35611,720;    4,600;   -1,040;35607,12000
 452,31;34613,710;    2,430;   -2,660;34611,28000
 452,65;33921,650;    0,710;    4,490;33920,94000
 452,99;32087,830;    0,490;    6,180;32087,34000
 453,33;30733,340;    0,340;    0,980;30733,00000
 453,66;31430,490;    2,910;   -4,470;31427,58000
 454,00;29904,820;    5,380;   -0,360;29899,44000
 454,34;26876,020;    2,300;    2,280;26873,72000
 454,68;28365,740;   -1,780;    1,380;28367,52000
 455,01;25409,040;    0,380;   -1,880;25408,66000
 455,35;24975,160;   -3,670;    3,650;24978,83000
 455,69;24369,550;    4,900;    1,700;24364,65000
 456,03;22493,620;    3,650;    5,610;22489,97000
 456,36;21318,960;   -2,230;    1,410;21321,19000
 456,70;20896,100;    7,850;    2,680;20888,25000
 457,04;21713,530;   -0,670;    2,530;21714,20000
 457,38;18450,500;   -1,520;   -0,030;18452,02000
 457,71;18400,850;    3,670;   -3,490;18397,18000
 458,05;17869,680;    1,440;  -10,080;17868,24000
 458,39;17595,920;    2,150;   33,160;17593,77000
 458,73;16688,500;    4,340;   57,340;16684,16000
 459,06;16413,600;    1,820;    6,920;16411,78000
 459,40;16143,370;    1,270;    7,730;16142,10000
 459,74;16801,230;    3,220;    1,140;16798,01000
 460,08;16266,620;    1,460;   13,600;16265,16000
 460,41;14946,870;   -1,270;   -4,690;14948,14000
 460,75;15388,210;    0,090;    0,600;15388,12000
 461,09;15529,480;   -2,740;    0,830;15532,22000
 461,43;14825,730;    4,390;   -2,320;14821,34000
 461,76;14510,960;   -0,220;    2,630;14511,18000
 462,10;14218,450;    8,450;    9,230;14210,00000
 462,44;14126,780;   -1,940;    5,490;14128,72000
 462,77;14230,020;   -2,110;    5,710;14232,13000
 463,11;13142,710;  -10,480;   -1,930;13153,19000
 463,45;13789,200;    2,070;    1,210;13787,13000
 463,79;13756,860;    2,160;   -1,710;13754,70000
 464,12;13013,510;    6,110;    6,320;13007,40000
 464,46;13135,410;   -1,640;    6,990;13137,05000
 464,80;12798,800;   -2,310;    0,520;12801,11000
 465,14;11694,710;    0,480;    4,860;11694,23000
 465,47;11773,670;   -0,130;   11,350;11773,80000
 465,81;11955,660;    0,430;   -5,620;11955,23000
 466,15;11943,670;    6,170;    0,110;11937,50000
 466,48;11887,520;   -2,920;    1,230;11890,44000
 466,82;11481,470;    9,780;   -2,590;11471,69000
 467,16;11215,290;    7,300;    1,610;11207,99000
 467,50;10566,780;    0,980;    4,120;10565,80000
 467,83;10528,040;    3,260;   -1,070;10524,78000
 468,17;10301,860;    0,470;    5,720;10301,39000
 468,51;10109,520;   -0,740;    1,000;10110,26000
 468,84; 9956,020;   -0,300;    6,910;9956,32000
 469,18; 9707,590;    1,210;   -6,220;9706,38000
 469,52; 9732,450;    4,850;    0,920;9727,60000
 469,86; 9128,890;   -3,110;    6,540;9132,00000
 470,19; 8757,260;   -1,330;   -1,060;8758,59000
 470,53; 8783,340;    6,250;    0,530;8777,09000
 470,87; 8923,880;    7,450;    4,140;8916,43000
 471,20; 8322,400;    6,170;   -6,030;8316,23000
 471,54; 7840,640;    2,630;    4,770;7838,01000
 471,88; 7775,310;    1,170;   -1,790;7774,14000
 472,21; 7750,820;   11,330;   -5,290;7739,49000
 472,55; 7523,000;    5,150;    6,290;7517,85000
 472,89; 7443,880;    1,150;    4,440;7442,73000
 473,23; 7384,660;    0,180;   -0,090;7384,48000
 473,56; 7127,820;   -2,690;    9,310;7130,51000
 473,90; 7130,430;    2,850;    0,330;7127,58000
 474,24; 7030,250;    7,010;    1,450;7023,24000
 474,57; 7134,000;   -4,470;    7,090;7138,47000
 474,91; 6647,620;    0,360;    3,950;6647,26000
 475,25; 6416,650;    2,080;   -2,250;6414,57000
 475,58; 6630,030;    3,790;    3,030;6626,24000
 475,92; 6468,500;    0,120;   -3,270;6468,38000
 476,26; 6492,620;    3,800;   -0,560;6488,82000
 476,59; 6443,550;    3,400;    5,230;6440,15000
 476,93; 6377,310;   -6,030;    3,800;6383,34000
 477,27; 6461,030;   -8,230;    6,300;6469,26000
 477,61; 6366,490;    7,840;   -5,360;6358,65000
 477,94; 6278,370;   -0,100;    1,800;6278,47000
 478,28; 6392,370;   -5,540;   -0,100;6397,91000
 478,62; 6433,700;    5,380;   -1,240;6428,32000
 478,95; 6167,580;    7,460;    1,000;6160,12000
 479,29; 6200,710;   -1,920;    7,660;6202,63000
 479,63; 6300,360;    4,880;    5,480;6295,48000
 479,96; 6170,100;   -3,700;   -3,850;6173,80000
 480,30; 6114,230;    4,380;    1,970;6109,85000
 480,64; 6213,220;    1,890;   -1,970;6211,33000
 480,97; 6186,880;    2,660;    0,860;6184,22000
 481,31; 6112,650;    2,260;   -3,520;6110,39000
 481,65; 6122,690;    6,710;    0,380;6115,98000
 481,98; 6122,000;   -2,080;   -1,670;6124,08000
 482,32; 6113,290;   -1,490;    3,800;6114,78000
 482,66; 6090,580;   -4,010;    4,790;6094,59000
 482,99; 6115,810;    7,060;    0,380;6108,75000
 483,33; 5999,900;    3,300;    2,510;5996,60000
 483,67; 6158,090;    2,840;    2,390;6155,25000
 484,00; 6069,800;   -5,010;   -2,890;6074,81000
 484,34; 6083,130;   -4,890;    0,950;6088,02000
 484,68; 6111,610;    4,550;    0,430;6107,06000
 485,01; 6018,500;   -1,540;    7,470;6020,04000
 485,35; 6151,040;   -1,350;   -0,050;6152,39000
 485,69; 6154,700;    2,070;    5,140;6152,63000
 486,02; 6183,410;    7,160;    4,750;6176,25000
 486,36; 6180,110;   -0,640;    0,860;6180,75000
 486,70; 6178,120;   -0,940;    2,090;6179,06000
 487,03; 6283,940;   -2,080;   -3,960;6286,02000
 487,37; 6367,340;   -2,600;    8,760;6369,94000
 487,70; 6374,760;    2,600;   -2,870;6372,16000
 488,04; 6429,460;    0,290;   -2,980;6429,17000
 488,38; 6518,800;    2,940;    5,990;6515,86000
 488,71; 6576,160;    4,780;    8,920;6571,38000
 489,05; 6729,290;    2,660;   -2,310;6726,63000
 489,39; 6792,080;   -1,300;   -1,580;6793,38000
 489,72; 6872,040;    6,670;   -0,500;6865,37000
 490,06; 6971,070;   -5,680;    6,880;6976,75000
 490,40; 7104,770;   -0,360;    9,690;7105,13000
 490,73; 7228,010;    0,050;    2,160;7227,96000
 491,07; 7400,050;    0,370;    2,420;7399,68000
 491,41; 7582,790;    1,250;    5,800;7581,54000
 491,74; 7657,030;    0,310;   -0,140;7656,72000
 492,08; 7875,120;    0,690;    8,530;7874,43000
 492,41; 7990,860;    1,310;   -1,300;7989,55000
 492,75; 8282,550;   -1,760;   -0,030;8284,31000
 493,09; 8433,110;    5,760;    4,150;8427,35000
 493,42; 8550,290;    6,700;    4,150;8543,59000
 493,76; 8787,350;    0,230;   -0,570;8787,12000
 494,10; 8929,160;    3,630;   -1,780;8925,53000
 494,43; 9229,950;   -4,120;    3,110;9234,07000
 494,77; 9330,250;    1,960;    2,770;9328,29000
 495,11; 9633,900;    2,240;   11,140;9631,66000
 495,44; 9854,580;    0,910;   -4,530;9853,67000
 495,78;10091,680;   -1,500;    5,470;10093,18000
 496,11;10231,600;   -1,040;   -4,260;10232,64000
 496,45;10579,430;    7,610;    6,110;10571,82000
 496,79;10740,520;    1,000;    2,220;10739,52000
 497,12;11153,020;    8,070;    2,140;11144,95000
 497,46;11350,360;   -3,060;   -2,720;11353,42000
 497,80;11613,690;    3,680;   -1,710;11610,01000
 498,13;11885,050;   -0,900;    2,630;11885,95000
 498,47;12145,580;    3,830;   -0,940;12141,75000
 498,80;12472,120;   -3,610;    0,300;12475,73000
 499,14;12683,400;   -0,760;    1,520;12684,16000
 499,48;12923,650;   -1,100;    3,640;12924,75000
 499,81;13294,270;    6,440;    3,640;13287,83000
 500,15;13557,460;   -9,790;   -0,380;13567,25000
 500,48;13882,310;    0,230;   -2,000;13882,08000
 500,82;14079,610;    3,250;    3,040;14076,36000
 501,16;14432,060;    3,670;    6,580;14428,39000
 501,49;14756,410;   -4,950;    2,880;14761,36000
 501,83;15073,600;   -4,120;    5,120;15077,72000
 502,16;15293,640;    4,210;   -2,370;15289,43000
 502,50;15790,680;   -5,910;    1,260;15796,59000
 502,84;15954,570;   -1,330;    0,050;15955,90000
 503,17;16286,510;   -0,320;   -4,780;16286,83000
 503,51;16532,300;    0,600;    5,590;16531,70000
 503,84;16843,110;    4,400;    3,500;16838,71000
 504,18;17130,520;    0,340;   -5,340;17130,18000
 504,52;17446,740;    6,290;    9,360;17440,45000
 504,85;17766,510;    3,210;    5,700;17763,30000
 505,19;17978,650;   -1,740;    6,070;17980,39000
 505,52;18481,970;   -6,110;    1,120;18488,08000
 505,86;18638,620;    0,650;    0,140;18637,97000
 506,20;19028,710;   -0,470;   -6,900;19029,18000
 506,53;19236,110;    6,060;   -0,650;19230,05000
 506,87;19760,390;   -0,030;    6,970;19760,42000
 507,20;19770,030;    5,790;    4,280;19764,24000
 507,54;20044,500;    3,310;    1,650;20041,19000
 507,88;20417,260;    3,230;    3,780;20414,03000
 508,21;20610,860;   -4,050;   -2,490;20614,91000
 508,55;20857,880;   -0,280;    7,120;20858,16000
 508,88;21402,320;    0,760;   -2,090;21401,56000
 509,22;21562,670;   -8,870;    6,200;21571,54000
 509,55;22127,320;   24,660;   -0,800;22102,66000
 509,89;22068,250;   67,040;   -1,440;22001,21000
 510,23;22560,050;   -0,830;   -2,140;22560,88000
 510,56;22844,910;   -2,090;    3,250;22847,00000
 510,90;23062,180;   -1,730;    3,340;23063,91000
 511,23;23151,700;    2,630;    2,710;23149,07000
 511,57;23552,790;   -4,400;   -1,650;23557,19000
 511,90;24028,040;    6,650;    0,050;24021,39000
 512,24;24032,500;   -3,870;   -2,950;24036,37000
 512,58;24518,330;    3,440;    8,290;24514,89000
 512,91;24516,830;   -1,380;    0,630;24518,21000
 513,25;24896,930;    5,860;    0,020;24891,07000
 513,58;25160,840;   -3,230;    2,880;25164,07000
 513,92;25405,340;    7,330;    0,770;25398,01000
 514,25;25732,350;   -1,740;    0,820;25734,09000
 514,59;25888,600;   -0,760;    2,600;25889,36000
 514,93;26076,870;    1,790;    1,530;26075,08000
 515,26;26508,350;    8,600;    7,590;26499,75000
 515,60;26490,290;   -0,340;   -2,580;26490,63000
 515,93;26746,320;    3,470;   -1,230;26742,85000
 516,27;26946,320;   -3,410;    4,840;26949,73000
 516,60;27375,770;    4,800;    2,850;27370,97000
 516,94;27257,600;    2,880;   -2,570;27254,72000
 517,27;27723,850;    9,500;    4,570;27714,35000
 517,61;27637,700;    2,260;    5,270;27635,44000
 517,95;27909,690;   -3,350;    2,170;27913,04000
 518,28;27901,090;   -3,190;    5,290;27904,28000
 518,62;28138,250;    3,680;    1,670;28134,57000
 518,95;28368,220;   -3,630;    1,190;28371,85000
 519,29;28605,600;    2,360;    1,710;28603,24000
 519,62;28634,740;   -1,340;    2,510;28636,08000
 519,96;28940,700;    8,140;    3,920;28932,56000
 520,29;28612,850;    0,950;   -0,430;28611,90000
 520,63;28946,130;   -1,670;   -0,150;28947,80000
 520,96;29062,210;    1,790;    3,620;29060,42000
 521,30;29282,770;    7,650;    1,200;29275,12000
 521,64;29408,380;    1,180;    3,890;29407,20000
 521,97;29431,200;   -1,090;    6,380;29432,29000
 522,31;29548,590;   -5,700;   -7,270;29554,29000
 522,64;29462,060;   10,020;   -5,510;29452,04000
 522,98;29967,130;   -2,080;    1,290;29969,21000
 523,31;29514,470;    1,080;    1,900;29513,39000
 523,65;29994,650;   -1,510;   -6,200;29996,16000
 523,98;29965,800;   -0,100;    5,970;29965,90000
 524,32;29882,520;    3,310;    1,030;29879,21000
 524,65;30291,230;    9,930;    1,710;30281,30000
 524,99;30071,510;    1,960;   -2,690;30069,55000
 525,32;30269,310;    3,530;    0,540;30265,78000
 525,66;30331,840;   -0,890;    0,430;30332,73000
 525,99;30278,430;   -3,340;    4,440;30281,77000
 526,33;30432,750;   -0,640;   -3,490;30433,39000
 526,66;30679,630;    0,310;    2,600;30679,32000
 527,00;30396,530;    2,220;    3,270;30394,31000
 527,34;30637,960;    8,290;    5,670;30629,67000
 527,67;30643,910;   -1,710;   -0,570;30645,62000
 528,01;30838,050;    7,730;    0,220;30830,32000
 528,34;30732,210;    1,650;    1,970;30730,56000
 528,68;30988,580;   -0,100;    5,830;30988,68000
 529,01;30926,310;    3,290;   -4,490;30923,02000
 529,35;30935,650;    6,480;    3,460;30929,17000
 529,68;30959,460;    1,510;    3,480;30957,95000
 530,02;31055,100;    1,780;    3,200;31053,32000
 530,35;31139,690;    4,710;   -8,440;31134,98000
 530,69;31124,980;    1,740;   29,930;31123,24000
 531,02;31348,810;   -1,730;   56,520;31350,54000
 531,36;31266,230;    1,420;    3,800;31264,81000
 531,69;31297,090;   -6,630;    5,160;31303,72000
 532,03;31561,800;   -0,960;    3,910;31562,76000
 532,36;31458,270;    0,600;    1,970;31457,67000
 532,70;31446,310;    5,580;    1,890;31440,73000
 533,03;31602,110;   -0,740;   -3,110;31602,85000
 533,37;31675,200;    3,940;    4,230;31671,26000
 533,70;31471,340;    5,830;    4,400;31465,51000
 534,04;32058,370;    3,960;    2,450;32054,41000
 534,37;31813,140;    6,940;    2,640;31806,20000
 534,71;31851,250;    3,690;   -1,000;31847,56000
 535,04;31904,620;    0,820;    2,680;31903,80000
 535,38;32089,400;    5,470;    3,230;32083,93000
 535,71;31815,030;    3,140;    0,930;31811,89000
 536,05;32139,370;    3,350;    2,100;32136,02000
 536,38;32324,500;   -1,320;    3,340;32325,82000
 536,72;32153,880;    3,390;    4,090;32150,49000
 537,05;32174,340;   -5,270;    6,640;32179,61000
 537,39;32451,490;    2,310;    3,610;32449,18000
 537,72;32393,360;    7,590;    6,190;32385,77000
 538,06;32492,100;    3,290;    2,570;32488,81000
 538,39;32533,070;   -2,130;    2,250;32535,20000
 538,73;32795,340;    3,870;   -0,040;32791,47000
 539,06;32743,470;    2,110;   -0,200;32741,36000
 539,40;32888,770;   11,690;    5,550;32877,08000
 539,73;32677,120;   -6,580;    3,140;32683,70000
 540,06;33011,860;    3,170;    6,510;33008,69000
 540,40;32989,890;   -4,720;   -1,330;32994,61000
 540,73;33135,330;    0,220;    2,640;33135,11000
 541,07;33057,670;   -5,970;    1,200;33063,64000
 541,40;33156,620;    0,240;    4,640;33156,38000
 541,74;33497,420;   -2,380;    3,540;33499,80000
 542,07;33375,990;    2,720;   -0,540;33373,27000
 542,41;33506,230;    2,840;    2,540;33503,39000
 542,74;33369,300;    8,810;    6,510;33360,49000
 543,08;33710,740;   -2,110;    2,200;33712,85000
 543,41;33555,110;   -1,170;   -1,260;33556,28000
 543,75;33604,420;   -3,130;   -0,700;33607,55000
 544,08;33727,950;    0,610;   10,220;33727,34000
 544,42;33750,850;    6,180;    0,830;33744,67000
 544,75;33926,430;    6,570;    0,750;33919,86000
 545,09;34124,480;   -0,220;   -1,050;34124,70000
 545,42;34215,800;    1,280;    4,050;34214,52000
 545,75;34124,600;   -3,180;    3,470;34127,78000
 546,09;33968,420;   -0,100;    0,050;33968,52000
 546,42;34123,030;    0,100;    3,700;34122,93000
 546,76;34317,360;    0,720;    3,460;34316,64000
 547,09;34036,040;    4,830;    0,370;34031,21000
 547,43;34278,170;    1,760;    8,850;34276,41000
 547,76;34140,440;    7,270;   -4,470;34133,17000
 548,10;34206,750;    4,120;    1,660;34202,63000
 548,43;34130,670;    0,100;    0,720;34130,57000
 548,76;34223,950;    1,260;   -1,010;34222,69000
 549,10;34307,070;    5,180;   -0,730;34301,89000
 549,43;34322,500;    6,330;    3,840;34316,17000
 549,77;34125,330;   -0,560;   -2,450;34125,89000
 550,10;34139,900;    2,550;    0,310;34137,35000
 550,44;34128,910;   -5,670;   -0,370;34134,58000
 550,77;34210,280;    3,650;    7,640;34206,63000
 551,11;34114,280;   -0,740;    1,220;34115,02000
 551,44;34095,110;    1,000;    2,480;34094,11000
 551,77;34061,520;   -2,410;   -4,760;34063,93000
 552,11;33887,570;    1,740;    5,570;33885,83000
 552,44;33694,610;   -5,010;    4,180;33699,62000
 552,78;33806,910;    2,280;    0,480;33804,63000
 553,11;33663,410;   -6,210;   -2,650;33669,62000
 553,45;33633,360;    4,060;   -1,040;33629,30000
 553,78;33579,510;    8,540;    1,400;33570,97000
 554,12;33352,220;   -0,860;   -2,450;33353,08000
 554,45;33772,760;   -5,150;    1,230;33777,91000
 554,78;33397,960;   11,280;    4,250;33386,68000
 555,12;33543,860;   -4,330;   -2,560;33548,19000
 555,45;33308,450;   -1,270;    8,650;33309,72000
 555,79;33431,600;   -1,960;   -1,140;33433,56000
 556,12;33029,350;   -3,070;    8,360;33032,42000
 556,45;33160,300;    4,100;    2,960;33156,20000
 556,79;33046,050;    1,770;    3,240;33044,28000
 557,12;32916,260;    0,200;    2,570;32916,06000
 557,46;32925,930;    3,270;    8,160;32922,66000
 557,79;32913,590;   -6,280;    3,260;32919,87000
 558,13;32654,070;   -1,190;    8,530;32655,26000
 558,46;32790,660;   -2,810;    0,860;32793,47000
 558,79;32564,500;    1,750;    6,670;32562,75000
 559,13;32582,340;    3,460;   -3,210;32578,88000
 559,46;32298,790;    3,320;   -0,190;32295,47000
 559,80;32237,960;    3,990;    6,490;32233,97000
 560,13;32252,290;   -2,910;    3,400;32255,20000
 560,46;32033,700;    8,510;    6,230;32025,19000
 560,80;31924,570;    0,090;    1,900;31924,48000
 561,13;32164,140;   -0,580;    0,810;32164,72000
 561,47;31601,470;    2,890;    4,320;31598,58000
 561,80;31791,740;   -2,630;    4,960;31794,37000
 562,13;31781,830;   -3,640;    4,430;31785,47000
 562,47;31701,080;    2,270;    1,920;31698,81000
 562,80;31616,730;    4,400;    2,240;31612,33000
 563,14;31361,300;   -3,080;   -1,680;31364,38000
 563,47;31301,030;   -0,380;    2,140;31301,41000
 563,80;31334,230;   -0,830;    2,900;31335,06000
 564,14;31058,930;   -5,930;   -0,740;31064,86000
 564,47;30994,070;    3,410;    3,320;30990,66000
 564,81;30919,110;   -0,930;   10,860;30920,04000
 565,14;31050,320;    1,670;    0,090;31048,65000
 565,47;30869,870;    0,130;   -1,020;30869,74000
 565,81;30773,970;    3,180;    4,490;30770,79000
 566,14;30293,050;    1,550;    2,810;30291,50000
 566,48;30636,670;    5,370;    2,470;30631,30000
 566,81;30619,850;    4,430;    2,530;30615,42000
 567,14;30129,800;   -1,980;    2,130;30131,78000
 567,48;30392,010;    5,810;    0,570;30386,20000
 567,81;30167,350;   -1,230;    0,030;30168,58000
 568,15;30187,950;    3,820;    5,610;30184,13000
 568,48;29978,150;   -5,810;    1,140;29983,96000
 568,81;29948,310;    5,560;    1,110;29942,75000
 569,15;29862,090;    3,480;    1,390;29858,61000
 569,48;29707,750;   -0,800;   -0,360;29708,55000
 569,81;29545,430;    0,180;    1,170;29545,25000
 570,15;29592,110;    7,530;    5,900;29584,58000
 570,48;29464,430;    4,980;    0,820;29459,45000
 570,82;29256,610;   -3,770;    1,040;29260,38000
 571,15;29154,600;    4,170;    6,150;29150,43000
 571,48;29180,470;    5,890;   -5,180;29174,58000
 571,82;28725,580;   -2,250;   -0,550;28727,83000
 572,15;28818,200;    3,240;    2,300;28814,96000
 572,48;28690,790;    3,220;    0,020;28687,57000
 572,82;28622,040;    7,240;   10,180;28614,80000
 573,15;28629,840;    1,450;   -2,640;28628,39000
 573,48;28485,710;    1,040;    0,560;28484,67000
 573,82;28275,580;    5,540;    1,280;28270,04000
 574,15;28289,080;    4,090;    1,840;28284,99000
 574,49;28186,870;    5,910;   -5,490;28180,96000
 574,82;27813,880;    2,600;    2,660;27811,28000
 575,15;27981,340;   -1,200;    0,150;27982,54000
 575,49;27793,150;    6,700;    2,180;27786,45000
 575,82;27765,900;    4,340;   -1,800;27761,56000
 576,15;27751,100;    3,230;   -3,060;27747,87000
 576,49;27527,200;    2,700;   -3,690;27524,50000
 576,82;27764,380;    3,570;    5,280;27760,81000
 577,15;27646,240;    5,940;    4,070;27640,30000
 577,49;27342,900;    2,590;   -4,570;27340,31000
 577,82;27413,240;    0,560;   -8,470;27412,68000
 578,15;27257,840;    4,850;   -2,390;27252,99000
 578,49;27334,230;   -0,380;   -2,140;27334,61000
 578,82;27157,400;   -0,130;   -2,880;27157,53000
 579,15;26944,390;   -0,060;    2,960;26944,45000
 579,49;27150,500;    3,350;    1,650;27147,15000
 579,82;27083,760;   -1,270;   -0,470;27085,03000
 580,15;26724,320;    2,230;    2,570;26722,09000
 580,49;27032,680;    4,210;   -0,190;27028,47000
 580,82;26791,680;    2,640;   -1,000;26789,04000
 581,15;26812,720;   -2,380;   -6,670;26815,10000
 581,49;26634,240;   -3,960;    0,300;26638,20000
 581,82;26590,360;    2,990;    5,260;26587,37000
 582,15;26482,020;    2,380;    5,200;26479,64000
 582,49;26510,460;    2,570;    4,200;26507,89000
 582,82;26422,020;    8,010;   -0,030;26414,01000
 583,15;26241,040;   -7,220;   -2,490;26248,26000
 583,49;26354,340;    1,830;    8,650;26352,51000
 583,82;26261,050;    2,640;    0,780;26258,41000
 584,15;26162,420;    1,050;    7,420;26161,37000
 584,49;26285,900;    1,030;   -3,360;26284,87000
 584,82;25863,800;    4,450;    6,100;25859,35000
 585,15;25964,120;    0,110;    4,700;25964,01000
 585,49;25721,160;    6,990;    7,000;25714,17000
 585,82;25601,190;   -1,110;    3,200;25602,30000
 586,15;25616,340;   -0,230;    3,490;25616,57000
 586,49;25369,810;    5,370;    3,260;25364,44000
 586,82;25504,670;    3,030;    3,970;25501,64000
 587,15;25236,380;    2,900;    2,000;25233,48000
 587,49;25079,290;    4,910;    2,410;25074,38000
 587,82;25140,420;    1,740;    5,070;25138,68000
 588,15;24746,960;   -1,950;   -2,550;24748,91000
 588,49;24713,320;    3,050;    3,970;24710,27000
 588,82;24708,240;    5,530;    3,970;24702,71000
 589,15;24938,960;   -5,930;    2,130;24944,89000
 589,48;24364,220;    3,720;   -4,430;24360,50000
 589,82;24360,020;   -1,470;   -4,310;24361,49000
 590,15;24167,920;    1,480;    0,070;24166,44000
 590,48;24075,140;    8,120;    6,020;24067,02000
 590,82;23924,040;   -0,860;    6,910;23924,90000
 591,15;23726,790;    1,670;    5,820;23725,12000
 591,48;23780,440;    6,630;    5,330;23773,81000
 591,82;23542,480;   -3,080;   -4,460;23545,56000
 592,15;23535,830;    3,470;    4,680;23532,36000
 592,48;23235,780;   -4,860;    0,670;23240,64000
 592,81;23178,880;   -0,740;   -1,340;23179,62000
 593,15;23073,970;   -1,020;    4,290;23074,99000
 593,48;22924,420;    9,860;    6,390;22914,56000
 593,81;23026,710;  -15,220;    0,930;23041,93000
 594,15;22674,700;   31,720;    1,230;22642,98000
 594,48;22691,860;   62,290;    1,520;22629,57000
 594,81;22250,360;   -0,080;    2,870;22250,44000
 595,15;22356,330;   -2,310;   -0,890;22358,64000
 595,48;22118,880;    9,250;    0,350;22109,63000
 595,81;22163,190;   -0,460;    1,370;22163,65000
 596,14;21793,820;    4,810;    5,680;21789,01000
 596,48;21752,240;   -5,480;    4,810;21757,72000
 596,81;21514,480;    4,050;    9,560;21510,43000
 597,14;21569,380;    3,020;    3,810;21566,36000
 597,47;21288,920;   -1,310;    5,660;21290,23000
 597,81;21203,180;    2,300;    4,740;21200,88000
 598,14;20974,020;    4,830;    3,320;20969,19000
 598,47;20791,330;    0,490;   -0,680;20790,84000
 598,81;20812,380;    6,930;    8,210;20805,45000
 599,14;20520,400;   -0,420;    2,020;20520,82000
 599,47;20411,480;   -2,620;    3,760;20414,10000
 599,80;20302,220;   -5,190;    6,230;20307,41000
 600,14;20155,120;    3,560;   -6,300;20151,56000
 600,47;20026,260;   -0,410;    0,600;20026,67000
 600,80;19805,400;   -0,200;   -3,960;19805,60000
 601,13;19702,290;    1,740;    6,140;19700,55000
 601,47;19506,450;    0,700;    0,460;19505,75000
 601,80;19395,140;    3,170;   -1,900;19391,97000
 602,13;19330,970;   -2,920;   -8,200;19333,89000
 602,47;19102,770;    0,570;   27,790;19102,20000
 602,80;18917,160;    3,380;   63,270;18913,78000
 603,13;18689,270;   -4,400;    4,230;18693,67000
 603,46;18572,170;    1,520;    2,890;18570,65000
 603,80;18453,540;   -7,330;   -2,950;18460,87000
 604,13;18225,010;    4,770;    2,570;18220,24000
 604,46;18171,480;   -4,590;    0,400;18176,07000
 604,79;18044,460;    8,810;    1,990;18035,65000
 605,13;17886,260;    1,970;    7,270;17884,29000
 605,46;17760,060;    4,230;   -5,750;17755,83000
 605,79;17491,690;   -2,540;   -0,890;17494,23000
 606,12;17322,760;    1,730;    4,530;17321,03000
 606,46;17227,360;    3,210;    4,550;17224,15000
 606,79;16901,170;    2,490;    3,780;16898,68000
 607,12;16822,480;    4,020;   -2,070;16818,46000
 607,45;16661,380;    2,760;    6,620;16658,62000
 607,79;16441,420;   -2,930;    5,050;16444,35000
 608,12;16321,560;    5,730;    2,650;16315,83000
 608,45;15997,070;   -0,020;    3,650;15997,09000
 608,78;15775,430;    6,110;    5,020;15769,32000
 609,11;15618,180;    3,590;    0,370;15614,59000
 609,45;15467,880;    0,060;    1,040;15467,82000
 609,78;15154,680;    0,870;    1,760;15153,81000
 610,11;14944,360;    0,690;    5,670;14943,67000
 610,44;14815,540;    4,780;    0,160;14810,76000
 610,78;14392,740;    6,770;    0,420;14385,97000
 611,11;14301,720;   -0,390;    6,070;14302,11000
 611,44;14033,500;    3,230;    3,780;14030,27000
 611,77;13774,630;   -0,510;    9,420;13775,14000
 612,11;13444,580;    7,840;    1,400;13436,74000
 612,44;13270,270;   -5,920;   -1,570;13276,19000
 612,77;13141,600;    1,040;   -0,450;13140,56000
 613,10;12900,550;    1,490;    2,290;12899,06000
 613,43;12704,060;   -2,720;    3,040;12706,78000
 613,77;12475,400;   10,760;   -1,690;12464,64000
 614,10;12407,600;    6,930;    2,630;12400,67000
 614,43;12168,740;   -3,550;    4,250;12172,29000
 614,76;12101,480;    0,410;   -1,030;12101,07000
 615,10;12042,170;   -3,180;    0,940;12045,35000
 615,43;11960,420;    3,810;   11,400;11956,61000
 615,76;11936,930;   -1,100;    3,040;11938,03000
 616,09;11855,090;   -2,020;    7,050;11857,11000
 616,42;11765,900;   -2,200;    3,430;11768,10000
 616,76;11380,070;    0,780;   -4,530;11379,29000
 617,09;11383,710;    4,780;    3,030;11378,93000
 617,42;11108,520;    6,240;   -3,360;11102,28000
 617,75;10968,440;   -0,120;   -5,410;10968,56000
 618,08;11209,520;    0,100;    0,440;11209,42000
 618,42;11335,260;    5,740;    2,150;11329,52000
 618,75;11416,460;   -0,470;   -0,500;11416,93000
 619,08;11592,410;    2,320;    1,430;11590,09000
 619,41;11393,700;    5,090;   -4,170;11388,61000
 619,74;11364,570;    0,010;    5,500;11364,56000
 620,08;11249,550;    1,830;   12,770;11247,72000
 620,41;11260,470;   -0,190;   -5,400;11260,66000
 620,74;11221,630;    1,680;    4,450;11219,95000
 621,07;11088,520;   -1,320;    0,870;11089,84000
 621,40;10924,630;   -2,100;    1,220;10926,73000
 621,74;10889,020;    7,730;   -0,060;10881,29000
 622,07;10747,760;    1,290;    5,000;10746,47000
 622,40;10616,910;    9,670;    3,220;10607,24000
 622,73;10592,500;    2,260;    5,570;10590,24000
 623,06;10368,070;   -2,830;   -2,860;10370,90000
 623,39;10261,800;    2,000;    5,390;10259,80000
 623,73;10153,420;    0,710;    0,120;10152,71000
 624,06;10008,580;    2,540;    1,630;10006,04000
 624,39; 9996,080;   -1,360;    4,010;9997,44000
 624,72; 9800,980;    6,220;   10,210;9794,76000
 625,05; 9736,590;   -0,080;    3,570;9736,67000
 625,39; 9606,190;   -3,380;   -1,650;9609,57000
 625,72; 9515,220;   -3,160;    7,260;9518,38000
 626,05; 9408,680;    0,990;    2,990;9407,69000
 626,38; 9327,710;   -2,560;    7,380;9330,27000
 626,71; 9202,160;    5,850;   -5,440;9196,31000
 627,04; 9129,910;   -0,620;    2,190;9130,53000
 627,38; 9077,120;    4,870;    3,780;9072,25000
 627,71; 8944,230;   -3,620;   -3,000;8947,85000
 628,04; 8800,840;    1,470;    0,330;8799,37000
 628,37; 8771,970;    1,610;    8,330;8770,36000
 628,70; 8621,280;    0,010;    2,340;8621,27000
 629,03; 8501,210;   -2,410;    0,700;8503,62000
 629,37; 8484,640;    0,610;    1,090;8484,03000
 629,70; 8329,420;    5,110;    1,190;8324,31000
 630,03; 8289,840;    1,690;    2,910;8288,15000
 630,36; 8204,510;   -1,100;    0,930;8205,61000
 630,69; 8053,490;   -0,050;    4,610;8053,54000
 631,02; 7959,320;   -3,690;   -0,060;7963,01000
 631,36; 7911,950;    8,630;   -1,810;7903,32000
 631,69; 7829,020;   -3,580;    0,190;7832,60000
 632,02; 7726,600;    0,630;    2,650;7725,97000
 632,35; 7657,970;    3,040;    4,990;7654,93000
 632,68; 7566,490;    6,380;    1,420;7560,11000
 633,01; 7440,340;   -2,600;   -0,120;7442,94000
 633,34; 7377,330;    6,710;   -7,040;7370,62000
 633,68; 7285,860;    1,320;   -2,400;7284,54000
 634,01; 7242,360;    3,150;    2,460;7239,21000
 634,34; 7155,090;    2,070;    1,250;7153,02000
 634,67; 7087,070;   -0,410;    4,360;7087,48000
 635,00; 6978,010;    1,870;   -0,270;6976,14000
 635,33; 6889,370;    0,210;   -4,520;6889,16000
 635,66; 6845,330;    9,480;    1,600;6835,85000
 636,00; 6721,630;   -3,170;    1,520;6724,80000
 636,33; 6644,510;    0,960;    2,600;6643,55000
 636,66; 6608,990;    3,480;    2,100;6605,51000
 636,99; 6483,500;    3,620;    5,180;6479,88000
 637,32; 6438,490;    7,040;    3,410;6431,45000
 637,65; 6361,610;   -2,110;   -0,530;6363,72000
 637,98; 6268,350;    0,920;    0,300;6267,43000
 638,32; 6194,580;   -7,900;    2,560;6202,48000
 638,65; 6155,540;    1,310;    7,760;6154,23000
 638,98; 6079,950;   -3,950;   -2,870;6083,90000
 639,31; 6012,840;    5,000;   -4,230;6007,84000
 639,64; 5904,120;    0,630;    0,830;5903,49000
 639,97; 5843,470;    2,200;    5,530;5841,27000
 640,30; 5764,320;   -0,610;   -2,140;5764,93000
 640,63; 5715,760;    2,210;    1,570;5713,55000
 640,97; 5641,750;   -1,820;    1,110;5643,57000
 641,30; 5546,380;    4,830;    7,220;5541,55000
 641,63; 5525,320;   -1,340;    2,240;5526,66000
 641,96; 5433,110;    0,970;   -2,020;5432,14000
 642,29; 5388,230;   -1,840;    5,920;5390,07000
 642,62; 5260,320;    5,800;    1,470;5254,52000
 642,95; 5218,160;   -3,070;    1,970;5221,23000
 643,28; 5194,840;    6,360;    4,550;5188,48000
 643,61; 5077,360;   -2,170;   -0,630;5079,53000
 643,95; 5047,560;    5,780;   -2,100;5041,78000
 644,28; 4997,490;    0,290;    4,670;4997,20000
 644,61; 4891,040;   -4,040;    2,590;4895,08000
 644,94; 4829,040;   -3,490;    2,720;4832,53000
 645,27; 4800,790;    2,660;   -4,700;4798,13000
 645,60; 4726,990;    2,020;    7,200;4724,97000
 645,93; 4671,530;    3,420;   -3,130;4668,11000
 646,26; 4650,120;    0,070;   -1,160;4650,05000
 646,59; 4573,760;    2,480;    8,770;4571,28000
 646,92; 4535,100;    1,980;   -0,800;4533,12000
 647,26; 4465,780;    7,930;   -0,400;4457,85000
 647,59; 4399,080;   -1,230;    2,300;4400,31000
 647,92; 4365,140;    1,660;    1,320;4363,48000
 648,25; 4268,020;    0,600;   -0,750;4267,42000
 648,58; 4230,760;   -3,720;    7,320;4234,48000
 648,91; 4183,720;    5,650;   -1,540;4178,07000
 649,24; 4109,940;    0,350;    1,190;4109,59000
 649,57; 4090,110;   -2,510;    3,270;4092,62000
 649,90; 4023,880;    2,060;   10,310;4021,82000
 650,23; 3993,670;    0,520;    4,800;3993,15000
 650,56; 3908,130;    6,180;    1,150;3901,95000
 650,90; 3880,900;   -3,230;   -4,310;3884,13000
 651,23; 3879,900;    1,950;    1,350;3877,95000
 651,56; 3832,810;   -2,410;    3,210;3835,22000
 651,89; 3805,860;    2,690;    5,780;3803,17000
 652,22; 3776,000;    6,090;   -3,950;3769,91000
 652,55; 3739,540;    3,230;   10,250;3736,31000
 652,88; 3722,130;   -1,160;   -0,760;3723,29000
 653,21; 3653,090;    3,490;    6,810;3649,60000
 653,54; 3638,710;   -1,870;   -5,450;3640,58000
 653,87; 3620,010;   -1,020;   -1,370;3621,03000
 654,20; 3622,310;    0,740;    8,700;3621,57000
 654,53; 3554,320;    3,260;    1,880;3551,06000
 654,86; 3525,740;   -3,690;   -0,280;3529,43000
 655,20; 3499,240;    2,680;    2,020;3496,56000
 655,53; 3448,560;   -3,850;    0,940;3452,41000
 655,86; 3412,060;    2,330;    5,800;3409,73000
 656,19; 3373,360;    1,870;   -4,610;3371,49000
 656,52; 3339,840;    3,330;    2,500;3336,51000
 656,85; 3253,870;    1,930;   -3,520;3251,94000
 657,18; 3250,100;    1,130;    2,350;3248,97000
 657,51; 3170,150;    0,510;    1,360;3169,64000
 657,84; 3108,740;    0,770;    3,900;3107,97000
 658,17; 3036,300;    0,110;    2,210;3036,19000
 658,50; 2998,010;    8,450;    0,070;2989,56000
 658,83; 2965,860;    5,730;   -1,990;2960,13000
 659,16; 2964,700;    1,100;    2,010;2963,60000
 659,49; 2913,260;   -3,240;    3,010;2916,50000
 659,82; 2876,530;   -6,500;    4,520;2883,03000
 660,15; 2767,350;   -2,570;   -0,950;2769,92000
 660,48; 2661,210;   12,260;   -2,180;2648,95000
 660,81; 2573,590;    3,700;    0,810;2569,89000
 661,15; 2458,000;    1,880;    4,170;2456,12000
 661,48; 2413,600;   -2,570;   -3,960;2416,17000
 661,81; 2408,130;    7,830;    9,950;2400,30000
 662,14; 2368,670;   -6,310;   -0,980;2374,98000
 662,47; 2311,450;    2,400;    1,520;2309,05000
 662,80; 2264,360;    2,950;    3,350;2261,41000
 663,13; 2217,260;    8,240;    7,380;2209,02000
 663,46; 2184,380;    1,970;    2,220;2182,41000
 663,79; 2158,700;    7,040;    6,740;2151,66000
 664,12; 2103,990;    3,980;    0,870;2100,01000
 664,45; 2057,220;    2,160;   -0,860;2055,06000
 664,78; 2027,770;    2,640;   -2,110;2025,13000
 665,11; 2005,410;   -0,820;    3,620;2006,23000
 665,44; 1965,500;    2,540;    2,350;1962,96000
 665,77; 1896,260;    2,360;    5,630;1893,90000
 666,10; 1900,860;    0,540;    5,000;1900,32000
 666,43; 1875,020;    2,990;   -0,720;1872,03000
 666,76; 1845,590;    8,190;    1,910;1837,40000
 667,09; 1809,390;    5,030;    0,790;1804,36000
 667,42; 1781,070;   -2,330;    0,390;1783,40000
 667,75; 1755,610;   -3,500;   -0,330;1759,11000
 668,08; 1736,160;    5,540;    7,960;1730,62000
 668,41; 1725,770;   -0,930;    0,800;1726,70000
 668,74; 1703,330;    1,770;    1,150;1701,56000
 669,07; 1678,040;    1,110;    1,860;1676,93000
 669,40; 1612,030;   -2,230;    2,380;1614,26000
 669,73; 1629,390;   -0,310;    4,600;1629,70000
 670,06; 1597,770;    2,520;   -5,490;1595,25000
 670,39; 1578,210;    1,870;   -2,420;1576,34000
 670,72; 1559,610;    2,730;    1,250;1556,88000
 671,05; 1532,260;   -0,950;   -0,450;1533,21000
 671,38; 1527,490;    2,140;    6,620;1525,35000
 671,71; 1499,380;    1,570;    4,900;1497,81000
 672,04; 1471,510;   -8,840;   -2,120;1480,35000
 672,37; 1438,780;   -3,640;    4,390;1442,42000
 672,70; 1410,220;   -8,920;    4,480;1419,14000
 673,03; 1411,410;    8,560;    6,180;1402,85000
 673,36; 1388,910;   -5,660;   -6,710;1394,57000
 673,69; 1355,400;   -1,090;   29,090;1356,49000
 674,02; 1332,370;   -7,050;   55,770;1339,42000
 674,35; 1295,490;    4,210;    9,490;1291,28000
 674,68; 1272,050;    0,900;    3,540;1271,15000
 675,01; 1254,800;    2,610;    2,080;1252,19000
 675,34; 1238,090;   -1,230;   -2,220;1239,32000
 675,67; 1218,820;    6,660;    2,970;1212,16000
 676,00; 1180,820;    3,910;   -1,250;1176,91000
 676,33; 1165,160;    5,390;   -6,420;1159,77000
 676,66; 1145,160;    0,020;   -0,150;1145,14000
 676,99; 1126,700;    4,320;    7,890;1122,38000
 677,32; 1104,970;    1,970;   -1,880;1103,00000
 677,65; 1076,280;   -5,180;   -4,020;1081,46000
 677,98; 1083,920;   29,960;    3,480;1053,96000
 678,31; 1127,730;   70,790;    6,580;1056,94000
 678,64; 1028,180;    5,390;   -4,210;1022,79000
 678,97; 1008,370;    5,560;    2,890;1002,81000
 679,30;  995,570;    3,950;   -0,040;991,62000
 679,63;  973,170;    7,580;    5,790;965,59000
 679,96;  975,020;   -4,170;   -1,410;979,19000
 680,29;  946,280;   -0,380;    1,260;946,66000
 680,62;  922,250;   -1,020;    5,810;923,27000
 680,95;  921,280;   -1,170;   -0,190;922,45000
 681,28;  893,080;    0,970;   -2,040;892,11000
 681,61;  879,520;    3,750;   -1,620;875,77000
 681,94;  873,610;   -1,150;    0,000;874,76000
 682,27;  844,830;    4,440;    0,170;840,39000
 682,60;  837,240;    4,140;    4,920;833,10000
 682,93;  818,050;    3,540;    3,030;814,51000
 683,26;  805,840;    5,180;    2,380;800,66000
 683,59;  812,650;    2,360;   -0,460;810,29000
 683,92;  779,480;   -5,560;    0,570;785,04000
 684,24;  762,740;   -6,010;    7,000;768,75000
 684,57;  755,470;    1,200;    3,390;754,27000
 684,90;  735,060;    7,180;    6,430;727,88000
 685,23;  732,460;   -1,320;   -2,620;733,78000
 685,56;  715,200;    0,120;   -1,780;715,08000
 685,89;  705,960;   -3,610;    1,720;709,57000
 686,22;  703,710;    5,120;    4,030;698,59000
 686,55;  670,920;    1,020;    0,730;669,90000
 686,88;  669,630;    6,490;   11,380;663,14000
 687,21;  647,790;   -3,590;   -0,430;651,38000
 687,54;  632,670;    1,350;    8,200;631,32000
 687,87;  625,000;   -1,820;    4,250;626,82000
 688,20;  616,540;    0,800;    2,520;615,74000
 688,53;  594,640;   -1,330;    5,130;595,97000
 688,86;  597,410;    5,830;    3,570;591,58000
 689,19;  579,570;   -4,980;   -0,020;584,55000
 689,52;  570,410;    6,310;    5,530;564,10000
 689,85;  565,080;    5,250;   -1,290;559,83000
 690,17;  556,880;   -0,530;    2,570;557,41000
 690,50;  533,050;    4,360;    2,660;528,69000
 690,83;  523,870;    5,120;    5,740;518,75000
 691,16;  513,690;   -0,400;    3,030;514,09000
 691,49;  512,820;    1,290;    5,260;511,53000
 691,82;  500,920;    1,260;   -4,120;499,66000
 692,15;  488,080;    6,040;    7,820;482,04000
 692,48;  483,140;   -2,510;    5,570;485,65000
 692,81;  473,350;    0,080;    4,270;473,27000
 693,14;  461,020;    3,950;    4,640;457,07000
 693,47;  453,350;    1,840;   -1,070;451,51000
 693,80;  450,540;    1,220;   -2,960;449,32000
 694,13;  437,190;    3,020;    5,080;434,17000
 694,46;  423,540;    2,970;    0,310;420,57000
 694,78;  423,710;    4,530;    0,650;419,18000
 695,11;  418,210;   -4,290;   -4,040;422,50000
 695,44;  411,090;    0,090;    5,590;411,00000
 695,77;  403,650;   -0,300;    0,000;403,95000
 696,10;  389,250;   -2,510;    3,060;391,76000
 696,43;  381,970;   -3,900;    2,670;385,87000
 696,76;  385,470;    2,460;    4,400;383,01000
 697,09;  371,350;    7,500;    0,650;363,85000
 697,42;  362,810;    8,150;    2,390;354,66000
 697,75;  357,080;    5,510;   -8,840;351,57000
 698,08;  354,650;    0,590;    5,130;354,06000
 698,40;  337,090;   -5,730;    2,210;342,82000
 698,73;  347,370;   11,130;    7,900;336,24000
 699,06;  329,830;   -4,620;    1,350;334,45000
 699,39;  322,250;   -0,300;   -1,150;322,55000
 699,72;  315,360;    0,100;   -1,240;315,26000
 700,05;  316,310;   -0,120;    2,270;316,43000
 700,38;  315,280;   -1,750;    6,910;317,03000
 700,71;  301,270;    1,090;    4,100;300,18000
 701,04;  293,050;   -3,180;   -1,360;296,23000
 701,36;  293,390;   -2,910;    6,320;296,30000
 701,69;  287,070;    3,610;    3,590;283,46000
 702,02;  282,670;   -0,550;   -2,490;283,22000
 702,35;  278,780;    7,950;   -5,070;270,83000
 702,68;  267,090;    3,200;    1,660;263,89000
 703,01;  265,320;   -0,730;    2,080;266,05000
 703,34;  262,760;    6,720;    0,800;256,04000
 703,67;  259,400;    0,730;    1,750;258,67000
 704,00;  254,860;   10,320;    6,960;244,54000
 704,32;  248,060;   -4,570;   -1,420;252,63000
 704,65;  253,100;    4,910;    6,280;248,19000
 704,98;  238,810;    0,250;    1,350;238,56000
 705,31;  236,940;   -0,250;    1,580;237,19000
 705,64;  224,280;    2,840;    1,270;221,44000
 705,97;  222,390;    2,640;    4,820;219,75000
 706,30;  218,500;   -7,050;   -1,790;225,55000
 706,63;  219,900;   -5,130;    6,080;225,03000
 706,95;  207,090;    0,370;   -2,710;206,72000
 707,28;  211,280;    0,520;    7,860;210,76000
 707,61;  197,910;    1,570;    1,370;196,34000
 707,94;  204,670;    1,310;   10,000;203,36000
 708,27;  201,280;    0,720;   -1,360;200,56000
 708,60;  201,350;   -1,480;   -2,070;202,83000
 708,93;  199,100;   -0,760;    2,700;199,86000
 709,25;  191,640;    0,990;    6,350;190,65000
 709,58;  181,510;    1,840;    3,760;179,67000
 709,91;  184,180;    2,070;    5,090;182,11000
 710,24;  171,550;    2,840;    3,920;168,71000
 710,57;  178,700;    5,650;    2,830;173,05000
 710,90;  170,570;    1,610;    3,620;168,96000
 711,23;  170,200;    2,810;    8,040;167,39000
 711,55;  163,460;    1,850;   -0,150;161,61000
 711,88;  159,180;    3,580;    1,210;155,60000
 712,21;  166,150;    0,490;   -3,440;165,66000
 712,54;  158,280;   -1,240;   -0,220;159,52000
 712,87;  149,760;   -3,350;    9,900;153,11000
 713,20;  148,360;   -2,370;    5,450;150,73000
 713,52;  144,300;    1,660;   -3,240;142,64000
 713,85;  145,580;    6,190;    5,850;139,39000
 714,18;  144,980;   -3,290;    3,060;148,27000
 714,51;  144,680;    0,850;    3,810;143,83000
 714,84;  132,070;   -1,200;    1,920;133,27000
 715,17;  129,640;    1,340;    8,430;128,30000
 715,50;  130,280;   -0,540;    3,010;130,82000
 715,82;  133,600;   -2,450;    5,880;136,05000
 716,15;  121,710;   -5,470;   -4,590;127,18000
 716,48;  124,320;    0,330;    3,130;123,99000
 716,81;  123,480;   -0,320;   -5,980;123,80000
 717,14;  115,980;   -0,870;    0,570;116,85000
 717,47;  114,370;    1,010;   -0,180;113,36000
 717,79;  115,410;    5,310;    8,090;110,10000
 718,12;  112,490;    0,600;    1,360;111,89000
 718,45;  112,730;    5,210;    3,060;107,52000
 718,78;  109,140;   -5,020;    1,190;114,16000
 719,11;  107,630;    1,990;    2,810;105,64000
 719,43;  108,590;    3,240;    1,390;105,35000
 719,76;   96,620;   -0,610;    4,150;97,23000
 720,09;   99,520;    0,750;    4,260;98,77000
 720,42;  103,010;   -3,340;    4,350;106,35000
 720,75;   97,500;   -3,700;    3,110;101,20000
 721,08;   89,560;    6,300;    1,510;83,26000
 721,40;   95,440;  -10,020;    3,980;105,46000
 721,73;   87,620;    2,450;   -1,970;85,17000
 722,06;   92,590;   -0,530;   -2,640;93,12000
 722,39;   87,120;    0,730;    7,670;86,39000
 722,72;   84,680;   -0,050;   -3,930;84,73000
 723,04;   79,190;    0,190;    1,320;79,00000
 723,37;   73,710;   -0,730;    3,070;74,44000
 723,70;   89,940;    7,970;   -0,900;81,97000
 724,03;   85,720;   -1,030;   -6,630;86,75000
 724,36;   80,310;    9,140;    3,020;71,17000
 724,68;   67,730;    2,380;   -1,560;65,35000
 725,01;   70,830;    2,210;    1,850;68,62000
 725,34;   67,910;   -2,190;   -0,960;70,10000
 725,67;   70,860;    7,620;    2,480;63,24000
 726,00;   64,910;   -0,470;    7,750;65,38000
 726,32;   72,860;   -0,130;    3,050;72,99000
 726,65;   58,900;   -5,230;   -0,760;64,13000
 726,98;   60,740;   -7,830;    3,880;68,57000
 727,31;   68,550;   -1,740;    0,160;70,29000
 727,63;   67,620;    6,380;    8,020;61,24000
 727,96;   57,360;   -0,750;    3,610;58,11000
 728,29;   58,760;   -3,650;   -0,610;62,41000
 728,62;   49,910;   -4,440;    1,180;54,35000
 728,95;   58,880;    6,170;   -0,820;52,71000
 729,27;   55,270;    2,710;    7,960;52,56000
 729,60;   62,600;    5,250;   -1,710;57,35000
 729,93;   54,140;    0,460;   -4,110;53,68000
 730,26;   60,960;    3,060;    8,560;57,90000
 730,58;   48,330;   -0,440;   -1,830;48,77000
 730,91;   51,680;    4,520;    4,510;47,16000
 731,24;   50,690;   -3,580;    1,140;54,27000
 731,57;   46,500;    6,210;    3,090;40,29000
 731,90;   45,450;   -5,150;   -6,190;50,60000
 732,22;   50,790;    1,520;    6,800;49,27000
 732,55;   43,480;    3,330;    3,110;40,15000
 732,88;   44,970;   -0,120;    0,740;45,09000
 733,21;   40,900;    2,360;   10,850;38,54000
 733,53;   46,070;    1,760;    0,450;44,31000
 733,86;   43,800;    6,850;    3,730;36,95000
 734,19;   34,150;   -1,380;    3,450;35,53000
 734,52;   36,970;    0,370;    1,540;36,60000
 734,84;   37,240;    9,630;    1,440;27,61000
 735,17;   40,600;   -3,660;   -1,320;44,26000
 735,50;   39,330;    3,350;   -0,850;35,98000
 735,83;   35,130;   -1,620;   -1,650;36,75000
 736,15;   38,220;    8,560;    2,490;29,66000
 736,48;   31,090;    1,900;    5,340;29,19000
 736,81;   36,170;    3,970;    1,350;32,20000
 737,14;   29,380;   -3,850;   -4,140;33,23000
 737,46;   36,030;    4,690;    4,840;31,34000
 737,79;   26,210;   -3,170;   -2,310;29,38000
 738,12;   26,780;    4,600;    6,120;22,18000
 738,45;   29,530;    2,120;    1,350;27,41000
 738,77;   29,750;    3,770;    4,940;25,98000
 739,10;   28,750;    0,770;   -0,690;27,98000
 739,43;   21,260;    4,580;   -0,540;16,68000
 739,76;   21,760;   -1,580;    1,650;23,34000
 740,08;   29,940;    3,010;    0,290;26,93000
 740,41;   22,590;   -3,200;    0,300;25,79000
 740,74;   20,990;    4,510;    3,160;16,48000
 741,07;   25,270;   -1,770;    0,280;27,04000
 741,39;   16,430;   -3,680;    5,360;20,11000
 741,72;   17,000;    0,610;   -2,020;16,39000
 742,05;   27,160;   -3,560;    3,630;30,72000
 742,37;   17,970;    4,280;    0,320;13,69000
 742,70;   23,960;   -6,620;    0,610;30,58000
 743,03;   19,870;   -7,330;   -2,160;27,20000
 743,36;   26,620;    3,940;    7,750;22,68000
 743,68;   20,500;   -3,690;   -6,600;24,19000
 744,01;   19,840;    1,810;   -4,660;18,03000
 744,34;   21,200;    0,090;   35,160;21,11000
 744,67;   15,080;    4,630;   59,020;10,45000
 744,99;   10,440;    4,080;    0,210; 6,36000
 745,32;   10,940;    2,170;    3,980; 8,77000
 745,65;   17,380;   -0,390;   -0,900;17,77000
 745,97;   13,180;   -2,240;    1,530;15,42000
 746,30;   13,570;    0,810;   -5,220;12,76000
 746,63;   14,470;   -0,060;    6,550;14,53000
 746,96;   14,130;    0,530;    1,040;13,60000
 747,28;   12,590;    1,200;    1,440;11,39000
 747,61;   11,190;   -4,660;    1,610;15,85000
 747,94;   11,550;    2,610;    2,830; 8,94000
 748,26;   14,090;    7,580;    0,100; 6,51000
 748,59;    9,460;    0,240;    8,660; 9,22000
 748,92;   10,250;    1,100;   -3,870; 9,15000
 749,24;   19,910;   10,210;    6,190; 9,70000
 749,57;    6,300;   -2,800;   -2,390; 9,10000
 749,90;    6,900;    3,570;    4,970; 3,33000
 750,23;    0,270;   -0,370;   -0,060; 0,64000
 750,55;    2,830;    1,340;    2,610; 1,49000
 750,88;   15,840;    0,390;    3,380;15,45000
 751,21;    8,730;    5,680;    1,980; 3,05000
 751,53;   10,300;   -2,030;    0,920;12,33000
 751,86;    5,060;   -1,000;    6,040; 6,06000
 752,19;    9,620;   -1,790;    7,680;11,41000
 752,51;    8,100;    2,120;    6,440; 5,98000
 752,84;    7,580;   -4,420;    0,490;12,00000
 753,17;    4,200;    1,960;    0,200; 2,24000
 753,49;    4,810;   -4,700;   -3,910; 9,51000
 753,82;    4,590;    4,110;    5,610; 0,48000
 754,15;    3,690;    1,810;    1,120; 1,88000
 754,47;    6,360;    2,290;    9,680; 4,07000
 754,80;    3,680;   -3,580;    1,190; 7,26000
 755,13;    5,880;    3,000;   -4,170; 2,88000
 755,45;    6,160;   -1,440;    1,490; 7,60000
 755,78;    2,370;    0,440;    3,250; 1,93000
 756,11;   -2,160;    0,750;    7,370;-2,91000
 756,43;    1,300;   -3,030;    0,310; 4,33000
 756,76;   -4,480;   -2,500;    2,100;-1,98000
 757,09;    2,530;   -1,910;    3,620; 4,44000
 757,41;   -2,360;    0,300;    4,740;-2,66000
 757,74;    5,130;    5,620;    6,360;-0,49000
 758,07;    0,080;   -5,000;    4,440; 5,08000
 758,39;    3,300;   -2,190;    5,440; 5,49000
 758,72;   -6,770;   -1,870;    0,920;-4,90000
 759,05;    1,620;    2,890;    2,200;-1,27000
 759,37;   -1,330;    0,450;   -2,890;-1,78000
 759,70;   -2,220;    1,270;   -2,400;-3,49000
 760,03;   -4,060;    6,260;    6,060;-10,32000
 760,35;   -0,620;   -4,870;    6,640; 4,25000
 760,68;  -14,350;  -12,840;    1,000;-1,51000
 761,01;   26,030;   35,090;    6,920;-9,06000
 761,33;   61,210;   61,450;    2,090;-0,24000
 761,66;    1,990;   -4,830;    2,630; 6,82000
 761,99;   -4,570;   -2,730;    3,130;-1,84000
 762,31;    1,130;    1,470;    1,450;-0,34000
 762,64;   -5,620;    6,430;    0,760;-12,05000
 762,97;   -2,150;    0,580;   -0,440;-2,73000
 763,29;   -2,860;   -2,310;   -0,550;-0,55000
 763,62;   -2,440;   -1,930;    7,820;-0,51000
 763,95;   -4,150;   -1,360;    1,340;-2,79000
 764,27;    0,590;    1,040;    3,170;-0,45000
 764,60;   -6,540;    4,170;   -4,100;-10,71000
 764,92;   -4,430;    6,380;    1,260;-10,81000
 765,25;    0,110;   -1,470;    8,770; 1,58000
 765,58;    2,760;    0,810;   -0,640; 1,95000
 765,90;    2,700;    3,610;    4,990;-0,91000
 766,23;   -2,560;   -1,870;    4,760;-0,69000
 766,56;   -6,410;   -0,620;   -3,620;-5,79000
 766,88;    2,430;    2,160;    3,820; 0,27000
 767,21;   -5,320;    2,110;    2,070;-7,43000
 767,53;    1,210;    0,000;    0,990; 1,21000
 767,86;   -4,030;   -0,910;    4,890;-3,12000
 768,19;   -7,850;   -5,750;    4,780;-2,10000
 768,51;   -4,590;   -1,020;    3,960;-3,57000
 768,84;   -4,080;    6,790;    1,170;-10,87000
 769,17;   -7,260;   -1,620;    4,060;-5,64000
 769,49;   -7,680;    1,160;   -3,840;-8,84000
 769,82;  -10,210;    4,240;   -5,320;-14,45000
 770,14;   -2,320;   -0,350;    3,870;-1,97000
 770,47;   -5,870;   -6,540;    5,330; 0,67000
 770,80;  -10,540;    4,880;   -2,120;-15,42000
 771,12;   -5,960;   -2,780;    3,950;-3,18000
 771,45;   -4,990;    6,170;    2,340;-11,16000
 771,77;  -12,300;   -0,300;    7,270;-12,00000
 772,10;   -2,500;   11,520;   -3,300;-14,02000
 772,43;   -0,620;    3,930;    2,510;-4,55000
 772,75;  -10,560;    3,400;   -2,280;-13,96000
 773,08;   -5,390;   -0,230;   -0,720;-5,16000
 773,40;  -11,530;    2,360;    0,690;-13,89000
 773,73;   -5,390;   -2,270;    3,470;-3,12000
 774,06;   -4,470;    5,150;    1,330;-9,62000
 774,38;   -8,980;    1,640;    0,760;-10,62000
 774,71;   -0,360;    2,660;    8,490;-3,02000
 775,03;   -7,880;   -1,890;    4,040;-5,99000
 775,36;   -8,110;   -0,240;    1,510;-7,87000
 775,69;  -11,160;   -0,920;   -2,440;-10,24000
 776,01;   -6,370;    4,680;    8,540;-11,05000
 776,34;    1,650;    2,670;    3,570;-1,02000
 776,66;  -12,950;    2,000;    1,640;-14,95000
 776,99;   -4,150;   -1,010;   -1,700;-3,14000
 777,32;   -8,600;    4,450;    1,210;-13,05000
 777,64;  -13,530;    6,600;   -2,660;-20,13000
 777,97;   -2,590;    1,320;    2,580;-3,91000
 778,29;  -10,980;    1,050;    0,670;-12,03000
 778,62;   -0,520;    1,930;    0,590;-2,45000
 778,94;  -11,280;    5,200;   -2,060;-16,48000
 779,27;   -9,960;    1,260;   -0,810;-11,22000
 779,60;   -3,650;   -4,900;   -0,800; 1,25000
 779,92;   -7,060;   -1,520;    5,630;-5,54000
 780,25;  -12,970;    0,690;    1,370;-13,66000
 780,57;   -6,670;    2,870;   -1,900;-9,54000
 780,90;   -1,870;    5,110;   -0,400;-6,98000
 781,22;   -5,920;   -1,300;    2,550;-4,62000
 781,55;  -14,830;   -3,740;    1,740;-11,09000
 781,88;   -6,750;   -3,170;   -6,260;-3,58000
 782,20;  -12,890;    5,520;   -1,300;-18,41000
 782,53;  -10,490;    4,000;    3,670;-14,49000
 782,85;   -8,840;    1,660;   -5,360;-10,50000
 783,18;    0,010;    6,750;    2,840;-6,74000
 783,50;   -9,380;   -1,690;    0,350;-7,69000
 783,83;   -9,210;    3,880;    0,660;-13,09000
 784,15;  -13,800;    7,750;    3,330;-21,55000
 784,48;   -8,470;    2,700;    4,600;-11,17000
 784,81;   -9,380;   -2,340;   -5,350;-7,04000
 785,13;   -9,360;    6,530;    0,400;-15,89000
 785,46;   -8,880;   -0,240;   -0,950;-8,64000
 785,78;  -10,370;    4,210;    7,470;-14,58000
 786,11;  -12,270;    5,200;    3,530;-17,47000
 786,43;   -8,900;    8,670;   10,760;-17,57000
 786,76;  -12,110;   -2,170;    2,400;-9,94000
 787,08;   -2,380;    4,960;    3,910;-7,34000
 787,41;  -12,070;    4,770;   -0,790;-16,84000
 787,74;  -13,840;    2,530;    0,400;-16,37000
 788,06;  -14,970;    5,090;    1,680;-20,06000
 788,39;  -10,370;    1,510;    5,840;-11,88000
 788,71;   -5,520;   -5,570;   -3,830; 0,05000
 789,04;   -3,720;    0,180;    2,920;-3,90000
 789,36;   -8,710;    0,520;   -0,020;-9,23000
 789,69;   -0,860;   -2,320;    3,230; 1,46000
 790,01;  -10,010;    5,030;   10,890;-15,04000
 790,34;   -7,620;    8,290;    2,500;-15,91000
 790,66;   -7,910;   -0,290;   -2,490;-7,62000
 790,99;  -16,110;    7,340;    5,580;-23,45000
 791,31;   -1,810;   -0,520;    6,140;-1,29000
 791,64;  -14,270;    2,850;   -4,470;-17,12000
 791,96;  -12,610;    3,760;    6,380;-16,37000
 792,29;  -12,940;    2,860;    5,650;-15,80000
 792,61;   -8,270;    1,860;    0,020;-10,13000
 792,94;  -11,230;    6,930;    5,160;-18,16000
 793,26;  -11,630;   -6,890;   -0,200;-4,74000
 793,59;   -6,600;    3,930;    9,690;-10,53000
 793,92;   -7,600;    0,140;    1,540;-7,74000
 794,24;   -5,510;    3,200;    5,100;-8,71000
 794,57;  -13,990;    3,000;   -5,260;-16,99000
 794,89;  -10,810;    2,560;   -0,480;-13,37000
 795,22;  -13,010;    4,030;    2,220;-17,04000
 795,54;   -9,660;    4,620;    7,430;-14,28000
 795,87;   -8,220;   -3,300;    0,880;-4,92000
 796,19;   -4,330;   -4,730;    6,260; 0,40000
 796,52;  -10,280;   -6,650;    5,170;-3,63000
 796,84;   -5,500;    2,790;    1,760;-8,29000
 797,17;  -11,090;   -3,750;   -3,080;-7,34000
 797,49;  -10,230;    0,170;    0,780;-10,40000
 797,82;  -10,450;    1,830;    2,090;-12,28000
 798,14;  -12,080;    8,530;    2,030;-20,61000
 798,47;   -9,110;   -2,550;    0,490;-6,56000
 798,79;   -8,760;    0,900;   -0,860;-9,66000
 799,12;  -17,020;   -2,020;   -2,310;-15,00000
 799,44;  -15,650;    1,200;   -1,110;-16,85000
 799,77;   -6,340;   -0,710;   -1,440;-5,63000
 800,09;   -5,680;    2,750;   10,240;-8,43000
 800,41;   -3,650;   -1,830;   -2,340;-1,82000
 800,74;   -7,790;    2,890;    3,450;-10,68000
 801,06;   -7,010;    1,590;   -7,190;-8,60000
 801,39;  -14,020;    3,330;    2,400;-17,35000
 801,71;  -12,730;   -3,770;   -3,940;-8,96000
 802,04;   -6,430;    5,160;    4,240;-11,59000
 802,36;  -16,860;    6,370;   -2,970;-23,23000
 802,69;   -6,770;    1,400;   -4,430;-8,17000
 803,01;   -8,950;    3,060;    0,510;-12,01000
 803,34;   -8,960;    2,140;   -2,400;-11,10000
 803,66;   -8,680;    2,650;    3,190;-11,33000
 803,99;   -9,400;   -4,550;    2,060;-4,85000
 804,31;   -6,880;    3,680;    4,070;-10,56000
 804,64;   -7,530;    2,620;    3,730;-10,15000
 804,96;  -11,210;    0,140;    3,880;-11,35000
 805,29;  -11,970;    2,980;    6,430;-14,95000
 805,61;   -4,140;   -2,400;    1,440;-1,74000
 805,94;   -9,850;    2,210;    0,290;-12,06000
 806,26;   -6,640;    3,530;    3,510;-10,17000
 806,58;   -6,000;    1,950;   -2,160;-7,95000
 806,91;  -11,200;   -1,270;    0,750;-9,93000
 807,23;   -7,580;    3,150;    2,050;-10,73000
 807,56;  -12,220;   -0,650;    6,540;-11,57000
 807,88;   -9,710;    0,060;    8,290;-9,77000
 808,21;  -10,390;    3,580;   -5,460;-13,97000
 808,53;   -7,910;    0,880;    1,340;-8,79000
 808,86;   -6,900;    6,660;   -5,240;-13,56000
 809,18;   -9,380;    0,230;    0,450;-9,61000
 809,51;  -14,960;    0,180;   -5,160;-15,14000
 809,83;   -9,520;    8,690;    5,870;-18,21000
 810,15;   -4,620;    5,640;    5,920;-10,26000
 810,48;  -12,740;    8,850;   -2,210;-21,59000
 810,80;   -9,610;    2,550;    2,710;-12,16000
 811,13;   -9,570;    2,670;    1,330;-12,24000
 811,45;   -8,360;    0,620;    4,280;-8,98000
 811,78;   -2,310;    1,970;   -1,820;-4,28000
 812,10;  -11,290;    0,530;   -1,550;-11,82000
 812,43;  -11,370;    2,040;   -0,300;-13,41000
 812,75;  -10,550;   -2,840;   -0,680;-7,71000
 813,07;   -6,840;    3,490;   -2,030;-10,33000
 813,40;   -7,010;    1,510;    0,510;-8,52000
 813,72;   -4,320;    3,290;    2,300;-7,61000
 814,05;  -14,110;    1,500;  -10,090;-15,61000
 814,37;   -8,480;    2,340;   31,260;-10,82000
 814,70;  -16,240;    1,320;   61,550;-17,56000
 815,02;   -3,650;    2,250;    5,520;-5,90000
 815,34;  -12,810;   -1,570;    6,800;-11,24000
 815,67;  -14,010;    1,370;   -0,140;-15,38000
 815,99;  -11,010;    7,580;    9,640;-18,59000
 816,32;  -15,630;    2,850;    8,350;-18,48000
 816,64;   -9,850;   -0,560;    2,190;-9,29000
 816,96;   -6,240;    0,610;    2,150;-6,85000
 817,29;  -11,260;    0,290;    5,700;-11,55000
 817,61;  -18,440;    5,710;   -0,090;-24,15000
 817,94;   -8,910;   -5,920;   -4,630;-2,99000
 818,26;  -15,570;    7,930;    0,990;-23,50000
 818,59;  -12,220;    2,550;    5,280;-14,77000
 818,91;  -10,160;    0,540;    8,430;-10,70000
 819,23;  -10,740;   -1,260;    0,910;-9,48000
 819,56;   -6,810;    5,500;    3,240;-12,31000
 819,88;   -8,940;    3,370;   -7,150;-12,31000
 820,21;   -3,750;   -1,320;    3,060;-2,43000
 820,53;  -10,480;    1,910;   -2,300;-12,39000
 820,85;   -4,850;    3,290;    0,780;-8,14000
 821,18;  -11,150;    1,290;    3,130;-12,44000
 821,50;   -2,030;    0,450;    3,530;-2,48000
 821,83;  -16,160;   -2,350;    7,580;-13,81000
 822,15;  -13,620;    4,630;    7,190;-18,25000
 822,47;  -11,650;    1,110;    7,210;-12,76000
 822,80;   -6,670;    3,790;   -0,170;-10,46000
 823,12;   -9,040;    5,770;   -0,530;-14,81000
 823,44;  -10,520;    6,760;    3,590;-17,28000
 823,77;  -10,500;    2,550;   -0,400;-13,05000
 824,09;   -5,050;    1,410;    3,470;-6,46000
 824,42;  -10,150;    2,780;    6,480;-12,93000
 824,74;   -7,050;    1,070;   -1,380;-8,12000
 825,06;   -9,470;    4,610;    1,190;-14,08000
 825,39;   -4,030;   -2,820;    5,130;-1,21000
 825,71;   -8,120;   -2,300;    6,440;-5,82000
 826,04;  -15,270;    3,080;    2,380;-18,35000
 826,36;  -12,550;   -7,770;    1,330;-4,78000
 826,68;  -11,910;    7,170;    6,520;-19,08000
 827,01;  -16,360;    0,330;    3,130;-16,69000
 827,33;  -10,330;    4,420;    5,530;-14,75000
 827,65;  -16,090;   -1,410;   -5,490;-14,68000
 827,98;   -5,050;    5,420;    0,550;-10,47000
 828,30;  -11,840;   -0,570;    3,600;-11,27000
 828,62;  -11,950;    1,600;    3,190;-13,55000
 828,95;   -7,470;    3,920;   -1,530;-11,39000
 829,27;  -11,650;    1,340;    2,900;-12,99000
 829,60;  -15,220;    4,940;   -9,270;-20,16000
 829,92;   -2,890;    0,760;    2,030;-3,65000
 830,24;   -5,500;    0,420;    2,390;-5,92000
 830,57;   -9,230;   -0,430;    2,880;-8,80000
 830,89;  -15,530;    0,400;    4,220;-15,93000
 831,21;  -11,670;    4,440;    4,540;-16,11000
 831,54;   -3,330;    0,780;   -1,460;-4,11000
 831,86;  -10,670;    4,460;    7,140;-15,13000
 832,18;  -10,660;   -3,500;    2,490;-7,16000
 832,51;  -13,500;    2,720;   -0,150;-16,22000
 832,83;  -13,150;    2,830;    3,110;-15,98000
 833,15;  -11,720;    7,450;    3,970;-19,17000
 833,48;   -8,860;    5,690;   -1,710;-14,55000
 833,80;  -13,470;    2,270;   -0,220;-15,74000
 834,12;  -10,750;   -6,650;   -0,460;-4,10000
 834,45;  -16,740;    2,470;    5,760;-19,21000
 834,77;  -11,980;    1,360;   -0,960;-13,34000
 835,09;   -6,190;   -0,290;    1,700;-5,90000
 835,42;  -10,110;    0,710;   10,140;-10,82000
 835,74;  -13,000;    7,570;   -1,360;-20,57000
 836,06;   -9,620;   -2,340;    2,470;-7,28000
 836,39;  -15,450;    2,190;    5,200;-17,64000
 836,71;  -14,490;    4,480;   -2,070;-18,97000
 837,03;  -10,720;    1,000;    0,000;-11,72000
 837,36;  -14,470;    2,520;    3,080;-16,99000
 837,68;  -12,270;    6,510;    5,970;-18,78000
 838,00;  -10,240;   -0,320;   -1,360;-9,92000
 838,33;   -8,170;    4,200;    4,250;-12,37000
 838,65;   -2,740;   -0,410;   -2,690;-2,33000
 838,97;  -10,220;    4,160;    5,140;-14,38000
 839,30;  -11,310;    1,040;    0,440;-12,35000
 839,62;  -13,310;    3,500;    2,150;-16,81000
 839,94;   -7,260;   -3,070;   -2,980;-4,19000
 840,27;  -10,980;    5,470;   -0,440;-16,45000
 840,59;  -12,560;   -5,630;    4,530;-6,93000
 840,91;  -10,160;   -1,240;    2,590;-8,92000
 841,24;   -9,530;    2,400;    1,140;-11,93000
 841,56;   -7,220;    8,080;    4,230;-15,30000
 841,88;  -11,230;   -2,490;   -1,630;-8,74000
 842,21;  -13,900;    4,300;    1,280;-18,20000
 842,53;   -9,110;   -7,580;   -4,630;-1,53000
 842,85;  -20,000;   -8,070;    6,080;-11,93000
 843,17;   22,370;   22,670;    4,440;-0,30000
 843,50;   56,140;   69,940;    4,940;-13,80000
 843,82;   -8,230;   -2,950;    2,600;-5,28000
 844,14;  -19,800;   -4,100;    5,270;-15,70000
 844,47;   -8,040;    1,790;    1,790;-9,83000
 844,79;   -7,780;    4,510;    1,140;-12,29000
 845,11;  -17,240;   -1,960;   -1,210;-15,28000
 845,44;   -5,500;   10,040;    7,510;-15,54000
 845,76;  -11,330;    2,320;    3,750;-13,65000
 846,08;  -10,340;    3,160;    6,200;-13,50000
 846,40;  -11,100;   -4,020;   -6,100;-7,08000
 846,73;  -13,790;   -2,450;   -0,440;-11,34000
 847,05;  -12,000;    3,210;   -3,930;-15,21000
 847,37;   -6,870;    3,630;   -3,200;-10,50000
 847,70;  -12,570;   -2,530;    1,910;-10,04000
 848,02;   -8,800;    1,950;   -3,330;-10,75000
 848,34;  -10,050;    3,770;    1,210;-13,82000
 848,66;   -9,460;    2,650;   -3,620;-12,11000
 848,99;  -10,490;   -3,330;    1,730;-7,16000
 849,31;  -13,870;    6,900;    6,940;-20,77000
 849,63;  -13,090;    6,000;   11,030;-19,09000
 849,95;  -11,530;    1,280;    4,190;-12,81000
 850,28;  -15,870;    1,570;   10,190;-17,44000
 850,60;   -8,830;    3,840;    7,070;-12,67000
 850,92;  -10,730;    1,740;    7,530;-12,47000
 851,25;  -10,370;    2,010;    0,310;-12,38000
 851,57;  -10,340;   -2,170;    3,680;-8,17000
 851,89;   -4,750;    5,060;    1,220;-9,81000
 852,21;   -4,020;    5,740;   -0,890;-9,76000
 852,54;   -7,160;    6,990;    3,020;-14,15000
 852,86;  -12,170;    2,710;    3,860;-14,88000
 853,18;   -3,800;    2,940;    4,090;-6,74000
 853,50;   -7,080;   -1,800;    4,840;-5,28000
 853,83;   -9,900;   -0,970;   -4,430;-8,93000
 854,15;  -10,880;    3,710;    7,480;-14,59000
 854,47;   -9,970;    1,170;    1,020;-11,14000
 854,79;  -11,220;   -2,340;   -2,600;-8,88000
 855,12;  -10,840;    2,060;   -5,380;-12,90000
 855,44;  -12,020;    2,700;   -1,860;-14,72000
 855,76;  -14,550;    3,240;   -5,690;-17,79000
 856,08;  -11,470;   -2,320;    2,150;-9,15000
 856,41;  -12,040;    3,630;    4,050;-15,67000
 856,73;  -11,870;   -0,470;   -1,140;-11,40000
 857,05;  -17,660;    1,810;    5,900;-19,47000
 857,37;  -17,600;   -0,310;    1,240;-17,29000
 857,70;   -7,440;   -1,300;    2,220;-6,14000
 858,02;  -12,040;    2,020;   -4,050;-14,06000
 858,34;  -12,920;    0,000;    7,220;-12,92000
 858,66;  -10,390;    3,310;   -1,720;-13,70000
 858,98;  -10,980;    8,760;    5,070;-19,74000
 859,31;   -9,990;   -1,170;    2,270;-8,82000
 859,63;  -12,400;    5,900;    4,840;-18,30000
 859,95;  -13,400;    1,770;    6,810;-15,17000
 860,27;   -9,020;    2,280;   -0,960;-11,30000
 860,60;  -12,580;    2,610;    1,650;-15,19000
 860,92;  -12,390;    4,000;    0,130;-16,39000
 861,24;  -11,500;    3,270;    5,340;-14,77000
 861,56;  -12,170;   -6,130;    3,920;-6,04000
 861,88;  -13,540;    5,950;    1,500;-19,49000
 862,21;   -4,160;    2,290;    2,720;-6,45000
 862,53;  -11,470;    4,850;   -2,430;-16,32000
 862,85;   -7,410;    4,280;    4,010;-11,69000
 863,17;  -13,090;   -1,660;   -3,260;-11,43000
 863,50;  -13,400;   -1,770;   -2,870;-11,63000
 863,82;  -15,200;    2,610;    6,340;-17,81000
 864,14;  -14,790;    4,150;   -0,730;-18,94000
 864,46;   -8,440;   -3,500;    4,000;-4,94000
 864,78;  -19,730;    4,470;    4,580;-24,20000
 865,11;  -14,460;    1,810;    2,320;-16,27000
 865,43;  -16,660;    1,930;    6,840;-18,59000
 865,75;  -19,690;    0,950;   -3,770;-20,64000
 866,07;  -16,380;    3,980;    7,260;-20,36000
 866,39;  -16,850;   -1,030;    3,140;-15,82000
 866,72;  -13,750;    5,130;   -3,560;-18,88000
 867,04;  -11,700;   -1,050;    8,530;-10,65000
 867,36;  -16,770;    3,730;    2,550;-20,50000
 867,68;  -11,220;    0,250;    1,540;-11,47000
 868,00;   -8,410;    2,410;    6,000;-10,82000
 868,33;  -20,200;    0,690;    1,370;-20,89000
 868,65;  -13,630;    1,580;    2,270;-15,21000
 868,97;  -11,150;   -4,890;   -2,340;-6,26000
 869,29;  -11,800;   -1,900;    4,240;-9,90000
 869,61;   -8,840;    6,440;   -3,760;-15,28000
 869,93;   -5,570;    2,370;    6,130;-7,94000
 870,26;   -8,350;   -1,010;    4,530;-7,34000
 870,58;  -13,110;    7,320;    7,600;-20,43000
 870,90;  -11,710;    1,630;    0,700;-13,34000
 871,22;  -16,680;    1,350;    5,530;-18,03000
 871,54;  -15,080;    3,270;    4,880;-18,35000
 871,87;   -9,590;    0,220;    5,500;-9,81000
 872,19;  -14,450;    0,980;    4,240;-15,43000
 872,51;  -13,960;    4,230;    0,360;-18,19000
 872,83;  -16,300;    2,600;    6,040;-18,90000
 873,15;   -8,320;    5,230;    0,640;-13,55000
 873,47;  -12,450;   -3,480;    4,410;-8,97000
 873,80;  -14,540;    0,140;   -4,410;-14,68000
 874,12;  -14,460;   -3,650;    7,040;-10,81000
 874,44;   -4,820;    4,600;    2,370;-9,42000
 874,76;  -15,810;    4,800;    5,730;-20,61000
 875,08;   -7,590;    2,840;   -0,210;-10,43000
 875,40;  -12,130;   -2,320;    0,330;-9,81000
 875,72;  -13,190;    2,590;    4,210;-15,78000
 876,05;  -13,520;   -9,260;    5,710;-4,26000
 876,37;  -13,140;    8,090;    1,970;-21,23000
 876,69;   -7,830;    2,480;    0,080;-10,31000
 877,01;   -8,740;    2,000;    3,510;-10,74000
 877,33;  -13,030;    2,490;    2,620;-15,52000
 877,65;   -9,550;   -2,360;   -6,280;-7,19000
 877,98;  -16,940;   -2,300;    5,220;-14,64000
 878,30;  -16,690;   -1,240;    3,960;-15,45000
 878,62;  -14,890;    2,730;    3,570;-17,62000
 878,94;  -16,260;    6,710;    3,120;-22,97000
 879,26;  -14,450;    5,610;    0,100;-20,06000
 879,58;  -14,520;    0,720;   -1,120;-15,24000
 879,90;  -13,910;    0,760;    4,670;-14,67000
 880,23;  -15,450;    3,230;    3,720;-18,68000
 880,55;  -11,050;   -5,110;   -2,700;-5,94000
 880,87;  -15,440;    9,120;   -2,250;-24,56000
 881,19;  -13,140;    4,800;    2,930;-17,94000
 881,51;  -10,490;   -1,060;    8,020;-9,43000
 881,83;  -12,890;   -0,680;    4,950;-12,21000
 882,15;  -16,450;    7,270;    7,710;-23,72000
 882,47;  -21,790;    3,700;   -1,750;-25,49000
 882,80;   -7,120;    4,710;    4,700;-11,83000
 883,12;  -18,050;    0,960;    0,730;-19,01000
 883,44;  -11,530;    0,790;   -8,280;-12,32000
 883,76;  -13,880;   -4,650;   27,520;-9,23000
 884,08;  -13,500;    1,480;   67,760;-14,98000
 884,40;  -12,350;    1,920;   10,540;-14,27000
 884,72;  -11,020;    7,520;    5,960;-18,54000
 885,04;  -10,340;    1,880;   -0,700;-12,22000
 885,36;  -11,140;    2,010;    6,500;-13,15000
 885,69;   -6,200;  -10,190;   -2,140; 3,99000
 886,01;   -6,440;    3,370;    2,640;-9,81000
 886,33;  -17,400;    0,150;    2,230;-17,55000
 886,65;  -17,210;    0,430;    0,590;-17,64000
 886,97;  -12,470;   -6,050;    1,360;-6,42000
 887,29;   -7,120;   -0,840;   -1,600;-6,28000
 887,61;  -17,790;   -3,110;   -6,170;-14,68000
 887,93;   -4,070;    4,260;    9,420;-8,33000
 888,25;  -14,270;   -2,030;   -0,100;-12,24000
 888,58;  -12,100;    0,990;   -0,580;-13,09000
 888,90;  -10,270;    2,420;    0,290;-12,69000
 889,22;   -6,530;    5,570;   -3,700;-12,10000
 889,54;  -13,540;   -9,000;    2,240;-4,54000
 889,86;   -9,990;   -4,410;   -1,530;-5,58000
 890,18;  -18,920;   -0,510;    2,810;-18,41000
 890,50;  -14,360;    6,650;    6,230;-21,01000
 890,82;  -18,360;    5,960;   -1,410;-24,32000
 891,14;  -13,970;    6,240;   -0,390;-20,21000
 891,46;  -20,020;    5,090;    2,810;-25,11000
 891,78;  -13,280;    1,710;    4,600;-14,99000
 892,11;  -12,920;    1,260;    3,310;-14,18000
 892,43;  -16,790;    2,290;    2,180;-19,08000
 892,75;  -10,300;   -5,310;    4,090;-4,99000
 893,07;  -11,100;    6,150;   -0,200;-17,25000
 893,39;  -16,320;   -0,540;    3,880;-15,78000
 893,71;   -8,630;    1,520;    4,750;-10,15000
 894,03;  -20,030;   -3,580;   -1,730;-16,45000
 894,35;   -9,140;    8,950;    6,250;-18,09000
 894,67;  -20,580;    0,660;    0,550;-21,24000
 894,99;  -13,740;    3,070;    6,420;-16,81000
 895,31;  -15,210;   10,190;    1,610;-25,40000
 895,63;   -5,790;   -0,140;    2,070;-5,65000
 895,95;   -7,240;   -1,800;    3,120;-5,44000
 896,27;  -11,080;    3,380;    8,000;-14,46000
 896,60;  -13,120;    3,930;    1,790;-17,05000
 896,92;  -15,140;    4,610;    6,780;-19,75000
 897,24;  -11,970;    3,460;   -5,020;-15,43000
 897,56;  -18,120;    2,530;    2,770;-20,65000
 897,88;  -13,050;    5,530;    5,030;-18,58000
 898,20;  -15,910;    6,150;    7,660;-22,06000
 898,52;  -10,900;   -1,760;    1,130;-9,14000
 898,84;  -13,740;    8,510;   -1,390;-22,25000
 899,16;  -18,730;   -3,660;    0,930;-15,07000
 899,48;  -15,530;   -0,460;    1,970;-15,07000
 899,80;  -17,900;   -1,280;    0,840;-16,62000
 900,12;  -10,100;    9,990;    3,030;-20,09000
 900,44;  -10,970;    9,550;    3,150;-20,52000
 900,76;  -12,150;    7,450;    5,920;-19,60000
 901,08;  -17,510;   -2,310;    7,640;-15,20000
 901,40;  -17,920;    6,930;    4,670;-24,85000
 901,72;  -13,150;    0,420;   -2,790;-13,57000
 902,04;  -14,630;   -0,270;    1,410;-14,36000
 902,36;  -14,570;    1,280;    7,150;-15,85000
 902,68;  -12,510;    1,900;    4,780;-14,41000
 903,00;   -8,220;    1,670;   -3,810;-9,89000
 903,32;   -9,290;    4,770;    1,670;-14,06000
 903,64;  -15,590;   -1,310;    3,330;-14,28000
 903,97;   -5,840;   -0,110;    5,000;-5,73000
 904,29;  -12,250;   -1,080;    1,550;-11,17000
 904,61;  -10,680;    4,840;    6,880;-15,52000
 904,93;  -12,370;    0,140;    5,120;-12,51000
 905,25;  -13,160;    6,270;    1,860;-19,43000
 905,57;  -17,460;    6,410;    2,510;-23,87000
 905,89;  -17,150;    3,160;   -1,740;-20,31000
 906,21;  -17,720;   -1,250;    0,180;-16,47000
 906,53;   -8,110;    7,800;   -4,260;-15,91000
 906,85;  -14,960;   -2,650;   -8,460;-12,31000
 907,17;   -9,430;   -2,970;    0,820;-6,46000
 907,49;  -13,600;    0,410;    5,010;-14,01000
 907,81;  -10,450;    1,850;    2,600;-12,30000
 908,13;  -17,130;   -4,620;    2,000;-12,51000
 908,45;  -11,770;    8,340;    3,660;-20,11000
 908,77;  -11,720;    1,510;   -1,140;-13,23000
 909,09;  -14,520;   11,040;    4,610;-25,56000
 909,41;   -9,130;    0,530;    0,770;-9,66000
 909,73;  -18,340;   -3,320;    1,290;-15,02000
 910,05;  -12,170;   -7,660;    2,870;-4,51000
 910,37;  -12,460;    9,350;    7,460;-21,81000
 910,69;  -15,140;    3,370;    1,700;-18,51000
 911,01;  -16,280;   -0,720;    1,770;-15,56000
 911,33;  -16,960;    2,550;   -1,830;-19,51000
 911,65;  -17,070;   -0,010;    8,470;-17,06000
 911,97;  -15,130;    2,450;    4,010;-17,58000
 912,29;  -12,630;    4,670;   -3,610;-17,30000
 912,61;  -21,200;    6,090;   -4,220;-27,29000
 912,93;   -9,320;    1,080;    1,200;-10,40000
 913,25;  -15,140;    6,860;   -4,250;-22,00000
 913,57;   -9,630;    3,090;    0,210;-12,72000
 913,89;  -11,510;    0,130;    0,030;-11,64000
 914,21;  -14,490;    4,400;    1,840;-18,89000
 914,53;  -10,770;   -2,290;    1,920;-8,48000
 914,85;  -17,610;    5,520;   -0,400;-23,13000
 915,17;  -14,340;    2,330;   -1,290;-16,67000
 915,48;  -12,570;    0,790;    4,150;-13,36000
 915,80;  -15,710;   -0,460;   -3,310;-15,25000
 916,12;  -11,590;   -0,620;    3,350;-10,97000
 916,44;  -10,140;    0,650;   -5,340;-10,79000
 916,76;  -15,040;    4,130;    2,990;-19,17000
 917,08;  -17,150;    4,580;   -5,170;-21,73000
 917,40;  -11,550;    0,480;    1,110;-12,03000
 917,72;  -21,200;   -1,150;   -5,280;-20,05000
 918,04;  -11,050;    0,120;   -2,980;-11,17000
 918,36;  -11,980;    0,380;   -2,880;-12,36000
 918,68;  -10,650;    1,800;    5,410;-12,45000
 919,00;  -10,790;   -0,370;    1,190;-10,42000
 919,32;  -12,170;    8,780;    1,900;-20,95000
 919,64;  -17,590;   -1,600;   -3,460;-15,99000
 919,96;  -16,410;    4,090;    1,910;-20,50000
 920,28;  -10,770;   -4,450;   -3,590;-6,32000
 920,60;  -11,630;    7,600;    4,930;-19,23000
 920,92;  -11,270;   -3,950;    4,080;-7,32000
 921,24;  -12,770;    6,120;    0,130;-18,89000
 921,56;  -11,220;    0,060;    2,520;-11,28000
 921,88;  -16,380;    8,510;   -1,030;-24,89000
 922,20;   -8,890;   -1,630;    7,080;-7,26000
 922,52;  -15,360;    2,560;    9,970;-17,92000
 922,83;  -10,880;   -0,860;    1,080;-10,02000
 923,15;  -13,630;    9,690;    6,100;-23,32000
 923,47;  -20,310;   -2,680;    0,840;-17,63000
 923,79;  -17,930;   -2,270;    5,060;-15,66000
 924,11;  -20,980;  -13,520;   -4,570;-7,46000
 924,43;   25,870;   28,070;   -1,790;-2,20000
 924,75;   47,800;   65,600;    6,740;-17,80000
 925,07;  -10,980;    2,340;    9,210;-13,32000
 925,39;  -11,070;   -3,720;    3,200;-7,35000
 925,71;  -12,530;    6,030;    1,310;-18,56000
 926,03;  -11,740;    1,170;    4,700;-12,91000
 926,35;  -18,970;   -0,040;    5,760;-18,93000
 926,67;  -12,240;   -0,280;    0,120;-11,96000
 926,99;  -13,120;    4,880;    5,140;-18,00000
 927,30;  -13,360;   -0,330;    4,580;-13,03000
 927,62;  -16,680;    3,140;    4,230;-19,82000
 927,94;  -13,340;    6,040;   -8,900;-19,38000
 928,26;  -16,860;    1,290;    3,040;-18,15000
 928,58;   -9,610;    1,340;    1,360;-10,95000
 928,90;  -11,870;    7,120;    9,150;-18,99000
 929,22;  -17,880;    0,730;   -6,500;-18,61000
 929,54;  -14,300;    4,720;    6,830;-19,02000
 929,86;  -15,800;   -0,290;   -4,160;-15,51000
 930,18;  -11,420;    5,380;    5,680;-16,80000
 930,50;   -9,150;    0,580;    1,000;-9,73000
 930,81;  -10,930;    4,710;   -3,660;-15,64000
 931,13;  -13,070;   -2,770;    2,320;-10,30000
 931,45;  -15,560;    1,090;    0,830;-16,65000
 931,77;  -12,270;   -1,250;   -0,410;-11,02000
 932,09;   -7,780;    4,780;   -0,440;-12,56000
 932,41;  -15,660;    1,850;    2,300;-17,51000
 932,73;  -10,070;    5,850;   -1,930;-15,92000
 933,05;   -8,100;    2,130;    1,440;-10,23000
 933,37;  -13,180;    4,780;    3,660;-17,96000
 933,68;  -13,170;    2,030;    4,000;-15,20000
 934,00;   -8,340;    3,330;   -0,180;-11,67000
 934,32;  -13,610;    3,270;    1,170;-16,88000
 934,64;  -11,360;   -2,020;    6,270;-9,34000
 934,96;  -10,460;    0,160;    7,970;-10,62000
 935,28;   -7,480;   12,120;    9,960;-19,60000
 935,60;  -12,230;    2,460;    5,020;-14,69000
 935,92;  -14,530;    2,600;   -3,830;-17,13000
 936,24;  -13,460;    2,640;   -4,530;-16,10000
 936,55;  -12,530;    2,200;    5,410;-14,73000
 936,87;  -14,330;    0,170;    2,940;-14,50000
 937,19;  -13,320;    4,630;    2,540;-17,95000
 937,51;  -11,810;    5,280;    5,580;-17,09000
 937,83;  -16,430;    4,980;    7,720;-21,41000
 938,15;  -13,730;    0,370;    3,230;-14,10000
 938,47;  -14,370;   -4,710;    3,770;-9,66000
 938,78;  -12,400;   -3,600;    3,280;-8,80000
 939,10;   -9,010;    5,710;    2,940;-14,72000
 939,42;  -10,520;    1,420;   -0,240;-11,94000
 939,74;  -14,060;   12,340;    8,320;-26,40000
 940,06;   -8,260;    1,090;   -0,630;-9,35000
 940,38;  -10,000;    2,330;    2,520;-12,33000
 940,70;  -19,000;    5,000;    5,220;-24,00000
 941,02;   -7,680;    3,500;   -0,160;-11,18000
 941,33;  -16,350;    2,970;    0,640;-19,32000
 941,65;  -11,310;    0,810;    4,010;-12,12000
 941,97;  -19,960;    6,870;    6,860;-26,83000
 942,29;   -6,390;   10,630;   -2,390;-17,02000
 942,61;   -6,910;    0,720;    3,980;-7,63000
 942,93;  -13,590;   -1,060;    4,480;-12,53000
 943,24;  -14,860;    1,500;   -7,500;-16,36000
 943,56;  -11,020;    6,100;    5,150;-17,12000
 943,88;  -10,520;   -3,350;   17,720;-7,17000
 944,20;  -13,540;   -0,030;   -0,530;-13,51000
 944,52;  -10,900;   -3,080;    3,620;-7,82000
 944,84;  -15,040;    1,290;    5,120;-16,33000
 945,15;   -5,570;    2,640;    3,360;-8,21000
 945,47;  -12,340;    4,250;    7,050;-16,59000
 945,79;  -17,250;    5,900;    4,370;-23,15000
 946,11;  -11,440;   -2,700;    4,410;-8,74000
 946,43;  -14,510;   -1,710;    3,440;-12,80000
 946,75;  -12,620;   -0,680;    0,920;-11,94000
 947,06;  -17,810;    5,660;    5,020;-23,47000
 947,38;   -8,880;    0,770;    1,140;-9,65000
 947,70;  -11,080;   -2,600;    0,390;-8,48000
 948,02;   -7,780;    7,130;    4,390;-14,91000
 948,34;  -11,250;    0,980;    1,470;-12,23000
 948,66;  -16,530;    1,070;    6,230;-17,60000
 948,97;  -16,080;   -0,070;    1,430;-16,01000
 949,29;   -8,620;    2,260;    5,970;-10,88000
 949,61;  -14,020;   -1,970;    6,860;-12,05000
 949,93;   -8,110;    5,710;    2,080;-13,82000
 950,25;  -11,610;   -5,430;    0,480;-6,18000
 950,56;  -12,390;    5,440;    2,230;-17,83000
 950,88;  -16,050;    1,170;    2,030;-17,22000
 951,20;   -6,340;    3,150;    5,930;-9,49000
 951,52;   -6,460;   -5,140;   -1,300;-1,32000
 951,84;   -7,840;    5,440;    7,660;-13,28000
 952,15;  -14,710;    2,130;   -6,660;-16,84000
 952,47;  -10,100;    7,370;   26,650;-17,47000
 952,79;  -17,810;   -0,750;   70,500;-17,06000
 953,11;   -8,490;    1,420;    4,370;-9,91000
 953,43;  -13,170;   -1,860;    4,440;-11,31000
 953,74;   -7,750;    8,920;    0,090;-16,67000
 954,06;  -16,670;   -5,380;    1,240;-11,29000
 954,38;   -9,770;   -0,180;    3,520;-9,59000
 954,70;  -11,220;    0,980;   -3,320;-12,20000
 955,02;   -7,150;   -4,190;    6,550;-2,96000
 955,33;   -7,950;   -1,410;    0,140;-6,54000
 955,65;  -11,570;    1,190;    3,220;-12,76000
 955,97;  -13,720;    0,160;   -4,750;-13,88000
 956,29;  -11,210;    5,720;    4,320;-16,93000
 956,60;  -11,670;    5,200;   -1,420;-16,87000
 956,92;  -12,230;    6,020;    1,930;-18,25000
 957,24;  -11,510;    1,490;    3,920;-13,00000
 957,56;   -9,330;    0,510;   -3,610;-9,84000
 957,88;  -10,040;    1,200;    0,220;-11,24000
 958,19;   -8,050;    6,360;    5,190;-14,41000
 958,51;  -12,250;    2,760;   -1,420;-15,01000
 958,83;   -8,170;    1,670;    7,070;-9,84000
 959,15;  -16,330;   -0,700;   -2,300;-15,63000
 959,46;   -8,320;    2,590;    3,950;-10,91000
 959,78;  -14,310;    1,690;   -1,470;-16,00000
 960,10;  -12,440;   -0,390;    9,230;-12,05000
 960,42;  -14,070;    0,490;    1,840;-14,56000
 960,73;  -11,300;    4,490;    4,250;-15,79000
 961,05;  -17,140;   -1,860;    3,320;-15,28000
 961,37;  -11,560;    2,100;    5,640;-13,66000
 961,69;   -8,130;    4,040;   -1,680;-12,17000
 962,00;  -16,820;    2,590;    5,990;-19,41000
 962,32;  -14,420;   -1,530;   -3,410;-12,89000
 962,64;   -9,390;    2,150;    0,740;-11,54000
 962,96;  -10,790;    0,250;    6,930;-11,04000
 963,27;   -7,220;    1,690;    5,840;-8,91000
 963,59;  -14,240;   -1,190;    0,590;-13,05000
 963,91;   -8,090;    4,780;    2,400;-12,87000
 964,23;   -8,880;   -0,990;    1,350;-7,89000
 964,54;  -12,600;    9,490;    1,850;-22,09000
 964,86;  -12,470;   -5,180;    1,280;-7,29000
 965,18;   -5,120;    4,470;   -0,490;-9,59000
 965,50;   -8,520;    2,990;   10,100;-11,51000
 965,81;  -11,170;   -4,530;    1,490;-6,64000
 966,13;  -17,380;   -1,560;    1,680;-15,82000
 966,45;  -13,950;    8,250;    6,590;-22,20000
 966,77;  -15,520;    1,260;   -2,750;-16,78000
 967,08;  -15,910;    4,670;    6,030;-20,58000
 967,40;  -17,150;    0,780;    3,480;-17,93000
 967,72;  -12,230;    3,660;    8,100;-15,89000
 968,03;  -14,240;    0,330;   -0,820;-14,57000
 968,35;   -5,030;    1,930;    4,100;-6,96000
 968,67;   -9,110;   -2,170;   -1,720;-6,94000
 968,99;   -9,540;    6,470;    5,390;-16,01000
 969,30;  -10,140;    2,370;    1,920;-12,51000
 969,62;   -8,580;    5,430;    3,540;-14,01000
 969,94;  -17,770;   -0,740;    3,150;-17,03000
 970,25;   -9,320;    1,980;    2,710;-11,30000
 970,57;   -9,410;    4,860;    6,400;-14,27000
 970,89;  -10,220;    4,650;    0,790;-14,87000
 971,21;  -16,380;    2,420;    3,880;-18,80000
 971,52;  -10,460;    0,460;   -0,440;-10,92000
 971,84;  -17,760;    3,580;    1,850;-21,34000
 972,16;  -12,760;    9,800;    5,220;-22,56000
 972,47;  -13,820;    0,140;    6,420;-13,96000
 972,79;  -15,100;    1,930;    7,170;-17,03000
 973,11;  -14,620;    4,790;    0,020;-19,41000
 973,42;   -8,570;    0,100;    5,390;-8,67000
 973,74;   -8,870;    3,330;   -3,010;-12,20000
 974,06;  -12,290;    0,410;    0,150;-12,70000
 974,38;   -9,420;    2,490;    1,500;-11,91000
 974,69;   -9,410;    7,000;    7,170;-16,41000
 975,01;  -15,090;    0,620;   -1,840;-15,71000
 975,33;  -11,020;   -0,570;    3,500;-10,45000
 975,64;  -10,480;    1,030;    2,850;-11,51000
 975,96;  -12,300;    5,740;    8,230;-18,04000
 976,28;  -14,990;   -2,920;    1,250;-12,07000
 976,59;   -9,930;    4,420;    3,380;-14,35000
 976,91;  -14,510;    3,670;    3,050;-18,18000
 977,23;  -10,580;   -2,990;    2,010;-7,59000
 977,54;  -12,170;    7,510;   -1,890;-19,68000
 977,86;  -10,130;    1,110;    4,900;-11,24000
 978,18;   -6,360;   -5,140;    6,000;-1,22000
 978,49;   -7,190;    5,700;    3,760;-12,89000
 978,81;   -8,440;   -0,990;    1,210;-7,45000
 979,13;   -8,300;   -1,560;    4,900;-6,74000
 979,44;   -3,020;    3,480;    3,830;-6,50000
 979,76;   -5,500;    5,290;    2,860;-10,79000
 980,08;  -12,440;    3,770;    3,250;-16,21000
 980,39;   -6,610;    5,400;    2,370;-12,01000
 980,71;   -7,390;   -2,760;   -0,310;-4,63000
 981,03;  -14,270;    3,960;    9,190;-18,23000
 981,34;   -8,910;    0,350;    3,500;-9,26000
 981,66;  -11,280;    4,570;    7,280;-15,85000
 981,98;  -12,340;    4,370;   -1,460;-16,71000
 982,29;   -8,780;    2,800;    1,360;-11,58000
 982,61;  -10,590;    2,630;    1,990;-13,22000
 982,93;   -8,750;   -0,040;    2,550;-8,71000
 983,24;  -12,910;    0,350;    4,800;-13,26000
 983,56;  -16,050;    1,630;    2,590;-17,68000
 983,88;  -13,230;   -3,710;    2,770;-9,52000
 984,19;  -11,010;   -0,690;    3,940;-10,32000
 984,51;  -10,960;    4,770;    7,800;-15,73000
 984,83;   -9,940;    7,700;   -1,690;-17,64000
 985,14;   -8,720;   -0,630;    6,820;-8,09000
 985,46;   -6,260;    4,310;    1,310;-10,57000
 985,77;  -14,590;    5,020;    0,860;-19,61000
 986,09;  -10,460;    2,440;    6,720;-12,90000
 986,41;   -7,810;    2,900;    2,920;-10,71000
 986,72;  -16,320;    2,660;    2,370;-18,98000
 987,04;  -16,520;    6,690;   -1,380;-23,21000
 987,36;  -12,350;    0,280;    3,860;-12,63000
 987,67;   -6,730;   -0,550;    0,400;-6,18000
 987,99;  -10,130;    1,830;    5,640;-11,96000
 988,30;  -12,260;    4,570;    0,440;-16,83000
 988,62;  -11,190;   -0,890;    3,210;-10,30000
 988,94;  -11,170;    4,070;    2,220;-15,24000
 989,25;   -9,210;    3,770;    2,400;-12,98000
 989,57;   -8,770;    0,200;    1,860;-8,97000
 989,89;  -11,930;    0,570;    1,690;-12,50000
 990,20;   -8,350;    0,210;    4,810;-8,56000
 990,52;   -9,100;    4,900;    0,240;-14,00000
 990,83;  -14,880;   -0,650;    2,090;-14,23000
 991,15;   -7,720;    6,040;   -3,520;-13,76000
 991,47;  -11,030;    2,760;    4,000;-13,79000
 991,78;  -11,030;    5,870;    5,280;-16,90000
 992,10;   -8,810;    1,280;   -4,070;-10,09000
 992,41;  -14,560;    1,900;   -3,110;-16,46000
 992,73;  -15,470;   -3,700;    0,840;-11,77000
 993,05;  -12,220;    1,350;    1,940;-13,57000
 993,36;  -10,830;    2,450;   -3,720;-13,28000
 993,68;   -6,690;    4,540;   -0,870;-11,23000
 993,99;  -16,600;    0,490;    1,310;-17,09000
 994,31;  -10,360;    3,960;    2,000;-14,32000
 994,63;  -10,610;    0,290;   -0,340;-10,90000
 994,94;   -5,050;    4,360;    8,160;-9,41000
 995,26;  -16,370;   -8,810;   -1,570;-7,56000
 995,57;   -9,320;    7,740;    0,710;-17,06000
 995,89;  -13,860;    2,620;   -2,830;-16,48000
 996,21;   -3,050;    1,580;   -1,460;-4,63000
 996,52;  -10,120;    2,710;    0,900;-12,83000
 996,84;  -12,320;    0,860;    2,890;-13,18000
 997,15;   -9,640;   -1,900;   -0,520;-7,74000
 997,47;  -10,230;    0,920;    8,460;-11,15000
 997,78;   -4,510;    3,880;    0,730;-8,39000
 998,10;   -7,230;    7,430;    3,890;-14,66000
 998,42;  -10,650;   -1,160;    0,670;-9,49000
 998,73;  -11,770;    2,400;    7,070;-14,17000
 999,05;   -9,590;    0,340;    5,320;-9,93000
 999,36;  -11,550;   -0,680;    1,530;-10,87000
 999,68;  -13,900;    0,310;    0,710;-14,21000
 999,99;  -10,370;    6,990;    3,130;-17,36000
1000,31;  -15,090;   -5,710;   -1,420;-9,38000
1000,63;   -2,960;    2,380;    2,310;-5,34000
1000,94;   -1,140;    0,960;    7,480;-2,10000
1001,26;   -6,430;    1,730;    2,220;-8,16000
1001,57;  -12,780;    2,950;    6,500;-15,73000
1001,89;   -8,570;    5,830;    3,430;-14,40000
1002,20;   -4,410;    0,030;   -1,460;-4,44000
1002,52;   -6,870;    6,430;    4,410;-13,30000
1002,83;   -9,170;    3,900;    0,040;-13,07000
1003,15;  -14,580;    4,170;    4,330;-18,75000
1003,47;  -11,700;    0,030;    1,340;-11,73000
1003,78;  -11,000;   -0,140;   -3,780;-10,86000
1004,10;  -15,370;   -2,920;    5,010;-12,45000
1004,41;  -21,890;   -6,570;    1,980;-15,32000
1004,73;   15,950;   23,680;   -1,970;-7,73000
1005,04;   49,710;   68,110;    3,890;-18,40000
1005,36;  -12,520;   -3,540;    6,000;-8,98000
1005,67;   -7,800;    0,640;    5,080;-8,44000
1005,99;   -7,720;    4,650;    3,780;-12,37000
1006,30;  -11,160;   -1,440;    2,660;-9,72000
1006,62;  -11,730;   -1,770;   -6,770;-9,96000
1006,93;   -4,200;    6,850;    1,250;-11,05000
1007,25;  -12,640;    0,310;    1,420;-12,95000
1007,57;  -11,020;    2,510;   -0,740;-13,53000
1007,88;  -14,290;   -7,950;   -3,580;-6,34000
1008,20;   -9,760;    6,260;    5,380;-16,02000
1008,51;  -16,920;   -1,570;    1,200;-15,35000
1008,83;   -7,990;    3,910;    5,790;-11,90000
1009,14;  -10,680;    1,140;   -2,030;-11,82000
1009,46;   -6,210;    5,920;    4,690;-12,13000
1009,77;   -9,340;    1,950;   -7,260;-11,29000
1010,09;  -11,590;    4,260;    3,570;-15,85000
1010,40;  -13,070;   -1,520;   -1,220;-11,55000
1010,72;  -10,470;    2,400;    2,660;-12,87000
1011,03;   -6,150;   -1,790;    0,950;-4,36000
1011,35;   -9,510;    0,040;    4,240;-9,55000
1011,66;  -14,090;   -0,060;    1,840;-14,03000
1011,98;  -12,620;    6,650;   -0,380;-19,27000
1012,29;  -10,610;   -1,650;    2,490;-8,96000
1012,61;   -9,930;    0,240;   10,310;-10,17000
1012,92;  -15,290;   -1,100;   -1,120;-14,19000
1013,24;  -19,240;   -2,300;    6,920;-16,94000
1013,55;   -8,830;   -5,750;   -0,760;-3,08000
1013,87;  -10,280;    6,040;    3,010;-16,32000
1014,18;   -7,940;    0,130;    7,310;-8,07000
1014,50;   -7,770;    0,040;    1,350;-7,81000
1014,81;   -9,910;   -1,000;    1,440;-8,91000
1015,13;   -5,100;    0,590;    4,660;-5,69000
1015,44;  -11,460;    0,340;    0,190;-11,80000
1015,76;  -13,000;    1,540;    3,170;-14,54000
1016,07;  -12,340;    0,280;   -0,740;-12,62000
1016,39;   -7,610;    5,770;    0,450;-13,38000
1016,70;  -13,450;    1,040;    2,240;-14,49000
1017,02;  -13,370;   -2,520;    4,580;-10,85000
1017,33;  -13,480;    0,720;   11,760;-14,20000
1017,65;   -5,910;    3,510;    4,700;-9,42000
1017,96;  -10,100;   -7,330;    7,610;-2,77000
1018,28;  -12,900;    4,740;    7,260;-17,64000
1018,59;  -17,900;   -3,400;   -0,250;-14,50000
1018,90;   -4,870;    0,120;    2,730;-4,99000
1019,22;   -1,880;    5,210;   -1,080;-7,09000
1019,53;   -8,500;    3,380;    7,050;-11,88000
1019,85;  -13,430;   -2,030;    3,410;-11,40000
1020,16;  -15,150;   -0,330;   -2,870;-14,82000
1020,48;  -13,380;   -3,090;   26,180;-10,29000
1020,79;   -5,590;    2,800;   60,410;-8,39000
1021,11;  -12,180;   -0,050;    5,060;-12,13000
1021,42;   -9,680;    0,090;    5,330;-9,77000
1021,74;  -13,570;   -2,120;    4,440;-11,45000
1022,05;  -10,440;    4,440;    6,610;-14,88000
1022,37;   -9,910;    1,920;    0,670;-11,83000
1022,68;   -9,810;    3,440;    1,390;-13,25000
1022,99;  -15,700;    1,870;    6,190;-17,57000
1023,31;   -3,250;   -0,530;   -1,520;-2,72000
1023,62;   -7,290;    0,560;    0,500;-7,85000
1023,94;   -9,670;    4,640;   -2,080;-14,31000
1024,25;  -17,510;   -2,150;   -2,040;-15,36000
1024,57;   -5,600;    6,870;    4,320;-12,47000
1024,88;  -12,410;    1,610;    2,020;-14,02000
1025,20;   -4,580;    0,300;    6,700;-4,88000
1025,51;  -10,990;   -3,850;   -0,060;-7,14000
1025,82;   -8,530;    7,350;   -2,000;-15,88000
1026,14;  -12,900;    1,150;   -1,370;-14,05000
1026,45;   -8,220;   -2,480;   -2,760;-5,74000
1026,77;  -12,060;   -1,110;    2,750;-10,95000
1027,08;   -7,870;    1,800;    8,290;-9,67000
1027,40;  -11,900;   -2,110;   -2,740;-9,79000
1027,71;   -9,380;   -0,090;    6,220;-9,29000
1028,02;  -12,330;    1,840;    1,380;-14,17000
1028,34;   -9,760;    4,280;    9,530;-14,04000
1028,65;  -14,840;    0,860;   -4,500;-15,70000
1028,97;   -7,320;    2,810;    6,610;-10,13000
1029,28;   -8,490;    1,370;    3,430;-9,86000
1029,60;  -13,400;    8,820;    0,310;-22,22000
1029,91;  -13,660;   -2,170;   -0,630;-11,49000
1030,22;   -7,660;    4,970;    0,930;-12,63000
1030,54;  -10,120;    3,660;   -0,540;-13,78000
1030,85;   -6,350;    2,590;    0,890;-8,94000
1031,17;   -6,640;    2,580;    5,870;-9,22000
1031,48;   -9,450;    4,930;    1,980;-14,38000
1031,79;  -12,380;    2,950;   -1,570;-15,33000
1032,11;   -8,010;    4,150;    1,520;-12,16000
1032,42;  -12,550;    0,520;    5,190;-13,07000
1032,74;  -11,740;    0,540;    2,420;-12,28000
1033,05;   -8,680;    4,910;    2,460;-13,59000
1033,36;   -8,610;    1,410;    7,720;-10,02000
1033,68;   -6,170;    7,180;    4,620;-13,35000
1033,99;  -15,450;    5,050;    0,660;-20,50000
1034,31;  -16,900;   -4,270;    7,430;-12,63000
1034,62;  -11,600;    0,400;    5,230;-12,00000
1034,93;  -11,240;    2,560;    2,760;-13,80000
1035,25;   -6,640;    0,010;   -2,310;-6,65000
1035,56;  -10,940;   -4,730;    2,050;-6,21000
1035,88;   -8,470;   -1,150;   12,450;-7,32000
1036,19;  -10,250;    3,030;   -0,290;-13,28000
1036,50;   -8,900;    7,240;    8,070;-16,14000
1036,82;  -21,160;    2,480;    2,310;-23,64000
1037,13;   -5,310;   -3,360;    5,200;-1,95000
1037,44;   -7,920;   -1,580;    2,980;-6,34000
1037,76;   -8,330;   -0,540;    9,840;-7,79000
1038,07;  -14,080;    9,670;    2,210;-23,75000
1038,39;  -10,230;    4,590;    5,820;-14,82000
1038,70;   -9,950;   -0,540;    3,330;-9,41000
1039,01;   -8,410;    0,450;    0,130;-8,86000
1039,33;  -12,300;    6,290;    5,720;-18,59000
1039,64;  -14,640;    1,750;    9,130;-16,39000
1039,95;   -9,330;    0,580;    4,470;-9,91000
1040,27;   -6,840;    3,430;    2,830;-10,27000
1040,58;  -11,870;   -0,760;    7,810;-11,11000
1040,89;  -13,410;    6,260;   -2,340;-19,67000
1041,21;  -15,990;   -1,460;   -1,780;-14,53000
1041,52;   -6,830;   14,340;    4,210;-21,17000
1041,83;  -10,130;    3,230;    2,130;-13,36000
1042,15;   -9,040;    3,440;    6,540;-12,48000
1042,46;  -12,220;   -3,270;   -2,990;-8,95000
1042,78;   -9,570;    5,330;   -3,930;-14,90000
1043,09;  -13,190;   -2,220;    0,590;-10,97000
1043,40;   -9,300;    2,230;    1,700;-11,53000
1043,72;  -10,830;   -4,530;    0,370;-6,30000
1044,03;   -3,460;    3,470;   -0,910;-6,93000
1044,34;  -10,680;    1,960;    1,660;-12,64000
1044,66;   -9,650;    6,300;    1,050;-15,95000
1044,97;  -13,990;    1,070;    2,440;-15,06000
1045,28;   -9,490;    3,870;    1,720;-13,36000
1045,60;  -10,500;   -2,640;    5,200;-7,86000
1045,91;  -15,090;   -0,080;    3,540;-15,01000
1046,22;  -14,290;    0,260;    2,790;-14,55000
1046,54;  -12,010;    0,730;    0,440;-12,74000
1046,85;  -10,280;    6,570;    2,550;-16,85000
1047,16;   -5,480;    5,440;   -0,030;-10,92000
1047,48;   -8,170;   -0,970;    4,270;-7,20000
1047,79;   -4,560;    6,760;   10,710;-11,32000
1048,10;   -8,570;   -0,070;    4,820;-8,50000
1048,42;   -6,620;   12,820;    5,900;-19,44000
1048,73;   -9,080;    0,190;    1,280;-9,27000
1049,04;   -9,910;    0,380;    9,780;-10,29000
1049,35;  -16,150;    1,470;    4,990;-17,62000
1049,67;  -12,380;    6,320;    2,720;-18,70000
1049,98;   -9,630;    1,840;    2,540;-11,47000
1050,29;  -11,880;    1,180;    1,410;-13,06000
1050,61;  -13,200;   -2,900;    8,130;-10,30000
1050,92;   -9,510;    2,250;    4,340;-11,76000
1051,23;   -8,840;   -0,670;    0,190;-8,17000
1051,55;   -9,780;    3,310;   -0,340;-13,09000
1051,86;  -12,230;    0,940;   -1,240;-13,17000
1052,17;  -12,130;    2,610;    4,800;-14,74000
1052,49;   -9,850;   -5,940;    1,340;-3,91000
1052,80;   -3,220;    6,950;   -1,480;-10,17000
1053,11;  -10,620;    0,410;    3,140;-11,03000
1053,42;  -12,050;    3,410;    3,700;-15,46000
1053,74;  -13,310;    3,830;    2,760;-17,14000
1054,05;  -13,450;   -1,860;   -4,820;-11,59000
1054,36;  -14,180;    2,420;    5,420;-16,60000
1054,68;   -8,760;   -0,810;   -4,600;-7,95000
1054,99;   -2,890;   -1,710;    1,680;-1,18000
1055,30;  -10,290;    7,550;    3,390;-17,84000
1055,61;   -9,340;    4,430;    2,920;-13,77000
1055,93;  -10,060;    4,750;    1,720;-14,81000
1056,24;  -13,030;   -2,130;    4,360;-10,90000
1056,55;  -10,540;    2,790;   -1,540;-13,33000
1056,87;   -7,920;    3,300;    1,730;-11,22000
1057,18;  -14,530;   -3,270;    2,860;-11,26000
1057,49;  -10,760;    4,120;   -0,240;-14,88000
1057,80;   -7,900;    6,490;    6,020;-14,39000
1058,12;  -10,480;   -3,010;    0,150;-7,47000
1058,43;  -13,460;    7,610;    2,730;-21,07000
1058,74;  -10,920;   -3,130;    4,670;-7,79000
1059,05;   -9,830;    7,640;    1,250;-17,47000
1059,37;  -11,690;    2,170;   -5,950;-13,86000
1059,68;   -4,170;    4,150;    4,860;-8,32000
1059,99;  -11,610;    4,340;    0,230;-15,95000
1060,30;   -8,480;   -2,450;    3,520;-6,03000
1060,62;   -7,350;    1,800;   -2,970;-9,15000
1060,93;   -8,910;   -1,970;   -2,820;-6,94000
1061,24;   -8,410;    1,410;    4,750;-9,82000
1061,55;   -9,530;    0,420;    0,120;-9,95000
1061,87;   -7,840;    1,750;    4,890;-9,59000
1062,18;  -13,090;   -1,370;    7,090;-11,72000
1062,49;  -12,540;   -2,060;    2,190;-10,48000
1062,80;   -8,110;    4,900;    5,760;-13,01000
1063,12;  -18,480;   -0,080;   -2,620;-18,40000
1063,43;   -1,920;    6,780;    7,540;-8,70000
1063,74;  -11,300;   -4,750;    6,880;-6,55000
1064,05;  -14,040;   -1,980;   12,260;-12,06000
1064,37;   -9,820;    1,310;    2,210;-11,13000
1064,68;   -6,180;   -0,590;   -0,210;-5,59000
1064,99;  -11,130;    0,700;   -3,100;-11,83000
1065,30;   -8,240;    2,610;    3,490;-10,85000
1065,62;  -10,840;    1,580;    0,580;-12,42000
1065,93;  -14,070;    8,070;    2,360;-22,14000
1066,24;  -15,530;   -3,320;    0,570;-12,21000
1066,55;  -11,270;    2,000;    6,170;-13,27000
1066,86;  -15,380;   -2,900;    1,430;-12,48000
1067,18;   -1,870;   -0,800;    0,150;-1,07000
1067,49;   -8,580;   -4,550;    0,560;-4,03000
1067,80;   -8,740;   -0,090;    5,750;-8,65000
1068,11;  -11,250;    5,660;    4,740;-16,91000
1068,43;   -9,900;    6,260;   -0,230;-16,16000
1068,74;  -13,310;    5,720;    3,680;-19,03000
1069,05;   -0,060;    4,560;    4,420;-4,62000
1069,36;   -8,550;    0,880;   -0,020;-9,43000
1069,67;   -4,710;    1,950;    2,850;-6,66000
1069,99;   -9,570;   -0,270;    4,080;-9,30000
1070,30;  -11,700;    4,900;    1,950;-16,60000
1070,61;   -9,490;    0,670;    6,290;-10,16000
1070,92;   -8,060;    6,740;    2,300;-14,80000
1071,23;   -5,220;    1,150;    2,360;-6,37000
1071,55;   -5,960;    3,580;    6,030;-9,54000
1071,86;  -12,790;    6,400;   11,970;-19,19000
1072,17;   -9,040;    2,080;    1,080;-11,12000
1072,48;   -8,780;    0,030;    1,960;-8,81000
1072,79;  -12,320;    4,470;    6,500;-16,79000
1073,11;  -12,930;    0,010;   -2,750;-12,94000
1073,42;   -7,350;    1,800;    4,130;-9,15000
1073,73;   -9,170;    1,550;   -3,000;-10,72000
1074,04;  -13,220;   -0,080;    0,380;-13,14000
1074,35;  -12,390;   -0,550;   -2,880;-11,84000
1074,67;   -6,480;    7,090;    2,240;-13,57000
1074,98;   -5,280;    2,880;   -8,040;-8,16000
1075,29;   -9,060;    5,090;    5,250;-14,15000
1075,60;   -8,950;    9,330;   -5,520;-18,28000
1075,91;  -10,330;    0,000;    5,620;-10,33000
1076,22;   -7,670;   -1,380;   -0,620;-6,29000
1076,54;  -12,020;    3,970;    7,550;-15,99000
1076,85;   -9,030;    0,550;   -1,390;-9,58000
1077,16;   -7,110;   -4,600;    1,310;-2,51000
1077,47;  -17,540;    4,640;    2,610;-22,18000
1077,78;   -3,570;    1,910;    4,900;-5,48000
1078,09;   -9,060;   -0,250;    2,500;-8,81000
1078,41;  -11,330;    7,590;   -0,680;-18,92000
1078,72;   -9,190;    0,760;   -0,660;-9,95000
1079,03;  -14,860;   -1,370;    5,940;-13,49000
1079,34;   -9,720;   -4,650;    3,580;-5,07000
1079,65;  -10,350;   -4,330;    5,850;-6,02000
1079,96;   -8,250;    4,550;    6,520;-12,80000
1080,28;  -14,650;    3,230;   -3,690;-17,88000
1080,59;  -11,610;   -1,640;   -2,370;-9,97000
1080,90;  -11,850;    2,390;    4,310;-14,24000
1081,21;  -15,520;    4,870;    5,260;-20,39000
1081,52;  -10,410;   -2,000;    3,780;-8,41000
1081,83;  -12,520;    4,060;    0,350;-16,58000
1082,14;   -8,710;   -4,060;   -1,750;-4,65000
1082,46;   -7,850;    2,160;   -0,730;-10,01000
1082,77;  -10,410;   -0,560;    4,680;-9,85000
1083,08;   -6,470;    1,190;   -4,540;-7,66000
1083,39;   -9,090;    1,540;    7,470;-10,63000
1083,70;  -22,460;   -9,850;    7,780;-12,61000
1084,01;   19,920;   28,360;    6,430;-8,44000
1084,32;   50,500;   63,010;   -0,350;-12,51000
1084,63;  -10,580;   -0,960;    6,590;-9,62000
1084,95;  -10,910;   -1,090;   -0,160;-9,82000
1085,26;  -16,250;    5,230;   -2,690;-21,48000
1085,57;  -12,900;   -6,150;   -3,770;-6,75000
1085,88;   -8,620;    1,220;    6,320;-9,84000
1086,19;  -10,310;   -0,960;   -6,030;-9,35000
1086,50;   -3,180;    1,590;    1,510;-4,77000
1086,81;  -16,630;   -0,320;   -2,890;-16,31000
1087,12;   -2,710;    1,960;    5,810;-4,67000
1087,44;   -9,100;    1,610;  -11,430;-10,71000
1087,75;   -7,440;    0,700;   35,730;-8,14000
1088,06;  -16,150;   -1,080;   58,240;-15,07000
1088,37;   -9,260;    0,600;    0,810;-9,86000
1088,68;  -14,030;    4,390;    4,570;-18,42000
1088,99;   -7,330;    9,790;    0,690;-17,12000
1089,30;  -11,020;    3,740;   -4,260;-14,76000
1089,61;  -10,530;    9,440;    2,990;-19,97000
1089,92;  -15,360;   -1,070;    2,260;-14,29000
1090,23;   -5,620;    0,320;    7,860;-5,94000
1090,55;   -5,930;   -8,750;    1,670; 2,82000
1090,86;   -6,830;    0,650;    6,130;-7,48000
1091,17;   -6,130;   -2,210;   -5,070;-3,92000
1091,48;   -3,380;    5,710;    8,390;-9,09000
1091,79;  -13,250;    1,530;   -0,520;-14,78000
1092,10;  -15,370;    1,620;    7,400;-16,99000
1092,41;   -6,680;    0,230;    6,290;-6,91000
1092,72;   -8,930;   -3,870;    2,520;-5,06000
1093,03;  -12,020;   -5,630;    0,650;-6,39000
1093,34;   -9,780;   -0,880;    4,380;-8,90000
1093,65;   -8,350;    1,420;    6,220;-9,77000
1093,97;   -5,620;    3,560;    4,560;-9,18000
1094,28;   -9,680;    0,920;    1,570;-10,60000
1094,59;   -0,870;    8,460;    2,380;-9,33000
1094,90;   -6,000;   -0,140;    5,980;-5,86000
1095,21;   -4,940;   -1,130;    1,980;-3,81000
1095,52;   -7,550;    2,570;   13,650;-10,12000
1095,83;   -8,440;    0,090;   -5,870;-8,53000
1096,14;  -13,920;    0,060;    5,280;-13,98000
1096,45;   -5,660;   -1,570;    2,420;-4,09000
1096,76;   -7,990;   -5,400;   -1,260;-2,59000
1097,07;  -11,000;    2,560;   -1,100;-13,56000
1097,38;   -8,620;    2,290;   -3,730;-10,91000
1097,69;   -9,050;    1,700;   -0,290;-10,75000
1098,00;   -9,070;    0,770;   -4,840;-9,84000
1098,31;   -8,950;    5,320;    3,260;-14,27000
1098,63;  -10,380;    1,340;   -0,200;-11,72000
1098,94;   -7,180;    3,930;    4,810;-11,11000
1099,25;  -13,300;   -0,280;   -2,790;-13,02000
1099,56;   -9,340;    6,420;    7,060;-15,76000
1099,87;   -6,830;    3,310;   -1,420;-10,14000
1100,18;   -6,220;    6,090;    8,150;-12,31000

