led-unfiltered
Integration time [ms]:   0,255
Averaging Nr. [scans]: 100
Smoothing Nr. [pixels]: 0
Data measured with spectrometer [name]: 1403062U1
Wave   ;Sample   ;Dark     ;Reference;Scope Corrected for Dark
[nm]   ;[counts] ;[counts] ;[counts] 

 176,36;    6,850;   -1,990;   -4,940; 8,84000
 176,71;   10,270;    2,510;    1,200; 7,76000
 177,05;   16,680;   -6,620;    1,620;23,30000
 177,40;   15,600;   -1,320;    1,160;16,92000
 177,74;    8,800;    1,740;    1,630; 7,06000
 178,09;   23,270;    2,820;    0,700;20,45000
 178,43;   10,900;    4,170;   -2,880; 6,73000
 178,78;    9,060;   -2,840;    7,430;11,90000
 179,12;   18,060;    1,090;    2,350;16,97000
 179,47;   13,110;    5,450;   -1,290; 7,66000
 179,81;   14,560;    0,850;    7,770;13,71000
 180,16;    8,980;    0,250;   -2,990; 8,73000
 180,50;   13,740;   -0,980;   -1,580;14,72000
 180,85;   10,580;    7,020;   -0,790; 3,56000
 181,19;   11,620;    1,680;   -3,310; 9,94000
 181,54;   14,680;   -3,060;   -0,550;17,74000
 181,88;   17,370;    7,780;   -6,480; 9,59000
 182,23;   15,500;   -4,800;   -3,500;20,30000
 182,57;   16,750;    0,930;    0,010;15,82000
 182,92;   17,470;    4,510;    1,600;12,96000
 183,26;   26,430;    4,200;    6,460;22,23000
 183,61;   17,130;    5,830;    5,600;11,30000
 183,95;   19,070;    7,070;    0,620;12,00000
 184,30;   16,400;    3,610;    2,620;12,79000
 184,64;   23,760;   -4,800;    0,860;28,56000
 184,99;   17,270;    1,950;    1,700;15,32000
 185,33;   20,420;    4,290;    1,640;16,13000
 185,68;   14,830;    1,740;   -2,140;13,09000
 186,02;   16,750;   -3,790;    8,470;20,54000
 186,37;   10,780;   -3,660;   -0,240;14,44000
 186,71;   15,540;   -3,210;   -2,180;18,75000
 187,06;    9,470;    3,320;    3,950; 6,15000
 187,40;   14,810;    5,190;    3,110; 9,62000
 187,75;   25,960;    0,600;    6,000;25,36000
 188,09;   14,180;    4,390;    2,940; 9,79000
 188,44;   20,840;    2,610;    6,360;18,23000
 188,78;   23,910;    3,390;   -2,530;20,52000
 189,13;   12,620;   -1,080;    0,290;13,70000
 189,47;   16,820;   -3,040;    2,160;19,86000
 189,82;   18,120;    6,140;   -0,170;11,98000
 190,16;   15,860;   -1,890;   -0,530;17,75000
 190,51;   20,580;    3,590;   -2,300;16,99000
 190,85;   18,900;    2,380;   -3,190;16,52000
 191,20;   19,700;    2,760;   -3,450;16,94000
 191,54;   19,810;   -2,560;   -5,110;22,37000
 191,88;   11,730;    4,150;    3,760; 7,58000
 192,23;   23,360;    2,550;   -3,410;20,81000
 192,57;   17,720;    7,540;    8,440;10,18000
 192,92;   13,850;   -1,600;   -3,170;15,45000
 193,26;   13,850;    6,800;    8,660; 7,05000
 193,61;   20,570;    0,860;   -6,900;19,71000
 193,95;   18,940;    4,890;    0,280;14,05000
 194,30;   17,180;   -1,090;   -4,090;18,27000
 194,64;   17,120;   -2,190;    4,160;19,31000
 194,99;   18,500;    5,990;    2,080;12,51000
 195,33;   15,980;    1,730;   -0,800;14,25000
 195,68;   19,780;   -2,730;    0,700;22,51000
 196,02;   18,310;    1,760;    5,190;16,55000
 196,37;   18,480;   -4,210;    1,300;22,69000
 196,71;   14,000;    2,870;    4,470;11,13000
 197,05;   12,810;   -4,830;   -2,210;17,64000
 197,40;   16,550;    9,870;    3,920; 6,68000
 197,74;   17,450;    5,210;   -1,110;12,24000
 198,09;   16,940;    7,750;    5,080; 9,19000
 198,43;   14,110;    3,540;    2,110;10,57000
 198,78;   13,900;    3,450;    1,580;10,45000
 199,12;   20,420;   -1,970;    0,300;22,39000
 199,47;   14,830;    0,170;    4,730;14,66000
 199,81;   14,970;   -2,950;    2,230;17,92000
 200,16;   21,050;   -3,900;   -2,050;24,95000
 200,50;   15,530;   -1,310;   -0,260;16,84000
 200,84;   18,950;    3,870;    3,170;15,08000
 201,19;   14,500;   -1,360;    1,890;15,86000
 201,53;   10,730;   -0,350;   -2,770;11,08000
 201,88;   18,100;   -7,410;    4,320;25,51000
 202,22;   20,430;    6,230;    0,800;14,20000
 202,57;   23,930;   -2,960;    6,390;26,89000
 202,91;   17,420;    7,560;    2,090; 9,86000
 203,26;   20,630;   -2,760;    1,290;23,39000
 203,60;   16,030;    2,490;    5,630;13,54000
 203,94;   14,810;   -3,000;   -1,070;17,81000
 204,29;   20,120;    9,720;   -0,730;10,40000
 204,63;   24,110;   -0,230;   -0,090;24,34000
 204,98;   16,610;    4,780;    6,600;11,83000
 205,32;   18,960;    3,220;   -1,270;15,74000
 205,67;   14,570;    0,060;    4,650;14,51000
 206,01;   25,590;    1,870;    2,660;23,72000
 206,36;   26,970;   -1,060;    7,150;28,03000
 206,70;   25,810;   -1,540;    4,990;27,35000
 207,04;   21,580;   -0,190;    1,580;21,77000
 207,39;   14,220;   -4,560;   -2,780;18,78000
 207,73;   17,570;    3,730;    2,870;13,84000
 208,08;   16,670;    0,000;    0,280;16,67000
 208,42;   20,520;    0,440;    0,400;20,08000
 208,77;   24,780;   -0,300;    1,510;25,08000
 209,11;   18,880;    5,860;    4,410;13,02000
 209,45;   20,020;    3,020;   -6,000;17,00000
 209,80;   18,990;    3,130;    2,210;15,86000
 210,14;   19,570;   -3,910;    2,850;23,48000
 210,49;   25,760;    8,130;    0,830;17,63000
 210,83;   21,450;    5,290;   -0,500;16,16000
 211,18;   22,140;   -0,330;    1,840;22,47000
 211,52;   15,700;    0,440;   -2,050;15,26000
 211,86;   21,450;    0,640;   -0,760;20,81000
 212,21;   15,530;    5,140;   -0,850;10,39000
 212,55;   21,180;    2,560;    0,350;18,62000
 212,90;   25,090;   -2,920;    5,690;28,01000
 213,24;   18,740;    1,170;   -0,200;17,57000
 213,59;   23,370;    3,850;    1,370;19,52000
 213,93;   28,030;   -2,180;   -2,980;30,21000
 214,27;   22,190;    1,980;   -1,450;20,21000
 214,62;   24,730;    4,340;    4,640;20,39000
 214,96;   23,020;    7,600;    0,500;15,42000
 215,31;   22,540;    4,730;    0,660;17,81000
 215,65;   22,120;   -1,950;    0,530;24,07000
 216,00;   21,460;    9,820;    3,700;11,64000
 216,34;   21,880;   -5,770;    7,630;27,65000
 216,68;   22,410;    1,360;    2,550;21,05000
 217,03;   21,310;   -2,520;   -2,950;23,83000
 217,37;   26,950;   -1,750;    7,880;28,70000
 217,72;   24,620;    2,390;   -3,170;22,23000
 218,06;   16,620;    5,830;    5,030;10,79000
 218,40;   22,050;    4,860;   -2,040;17,19000
 218,75;   21,070;    0,520;    2,830;20,55000
 219,09;   18,490;   -2,330;    4,950;20,82000
 219,44;   22,100;    0,850;    1,680;21,25000
 219,78;   27,520;   -6,110;    0,300;33,63000
 220,12;   22,840;    1,860;   -2,360;20,98000
 220,47;   22,990;    1,740;    0,160;21,25000
 220,81;   19,570;    7,670;    1,970;11,90000
 221,16;   23,680;    1,010;    2,430;22,67000
 221,50;   21,120;   -3,260;    0,030;24,38000
 221,84;   22,360;   -1,290;    4,400;23,65000
 222,19;   24,340;    5,290;   -1,310;19,05000
 222,53;   17,100;    1,180;    7,310;15,92000
 222,88;   17,390;    4,630;    8,230;12,76000
 223,22;   20,220;   -1,170;   -4,200;21,39000
 223,56;   25,380;   -3,660;   11,460;29,04000
 223,91;   14,150;    2,400;   -0,780;11,75000
 224,25;   25,150;    7,250;    2,120;17,90000
 224,60;   24,100;    0,460;   -1,480;23,64000
 224,94;   27,530;   -0,840;    3,330;28,37000
 225,28;   25,820;   -3,050;   -1,170;28,87000
 225,63;   25,910;   -0,750;    5,740;26,66000
 225,97;   15,770;    3,490;    1,330;12,28000
 226,32;   17,450;    3,510;   -0,260;13,94000
 226,66;   24,780;    0,040;    5,090;24,74000
 227,00;   17,870;   -0,270;    3,420;18,14000
 227,35;   24,660;    1,730;   -2,020;22,93000
 227,69;   18,550;    0,190;    1,910;18,36000
 228,04;   17,420;   -1,330;   -0,610;18,75000
 228,38;   14,110;    3,580;   -5,470;10,53000
 228,72;   23,230;   -5,870;   -3,900;29,10000
 229,07;   21,970;    2,060;    0,630;19,91000
 229,41;   24,620;    0,180;   -0,140;24,44000
 229,75;   27,480;    3,300;    4,380;24,18000
 230,10;   21,550;    3,900;   -0,170;17,65000
 230,44;   31,910;    4,260;    7,890;27,65000
 230,79;   23,690;    0,920;   -0,360;22,77000
 231,13;   19,440;    7,220;    4,010;12,22000
 231,47;   27,310;    0,750;    3,080;26,56000
 231,82;   19,010;    0,980;    6,400;18,03000
 232,16;   25,310;    2,380;    1,390;22,93000
 232,50;   13,680;    2,580;    1,650;11,10000
 232,85;   19,120;    3,960;   -2,240;15,16000
 233,19;   19,390;    7,270;    6,400;12,12000
 233,54;   24,150;   -5,030;    9,110;29,18000
 233,88;   21,750;    3,540;   -0,630;18,21000
 234,22;   18,380;    3,910;    3,200;14,47000
 234,57;   25,400;    2,160;   -0,350;23,24000
 234,91;   26,640;    4,860;    3,130;21,78000
 235,25;   19,370;    3,270;    0,820;16,10000
 235,60;   20,820;    2,640;    4,420;18,18000
 235,94;   27,710;   -1,530;   -1,930;29,24000
 236,29;   28,730;    0,100;   -3,820;28,63000
 236,63;   21,770;    5,530;   -0,440;16,24000
 236,97;   27,380;   -0,100;    4,160;27,48000
 237,32;   25,390;    7,370;   -3,280;18,02000
 237,66;   25,390;   -0,040;    7,650;25,43000
 238,00;   22,390;   -2,400;    0,290;24,79000
 238,35;   20,280;    1,380;   -7,850;18,90000
 238,69;   25,330;    1,540;   29,260;23,79000
 239,03;   26,250;    5,070;   65,740;21,18000
 239,38;   21,100;    7,220;    3,060;13,88000
 239,72;   23,440;    4,660;    0,310;18,78000
 240,06;   22,050;    0,710;    2,810;21,34000
 240,41;   28,160;    0,200;    0,290;27,96000
 240,75;   25,440;   -3,610;    2,750;29,05000
 241,10;   18,800;   -0,450;    4,230;19,25000
 241,44;   25,510;    4,100;   -0,270;21,41000
 241,78;   19,000;   -1,180;    3,450;20,18000
 242,13;   21,290;    6,690;   -2,120;14,60000
 242,47;   19,520;    1,060;   -4,250;18,46000
 242,81;   26,250;    4,080;    4,680;22,17000
 243,16;   22,030;   -3,560;    1,580;25,59000
 243,50;   24,550;    8,210;   -2,120;16,34000
 243,84;   23,770;    3,650;   -1,390;20,12000
 244,19;   21,730;    6,970;    1,600;14,76000
 244,53;   27,840;    5,270;   -0,360;22,57000
 244,87;   23,280;    5,070;    6,880;18,21000
 245,22;   27,650;   -4,930;    1,260;32,58000
 245,56;   25,390;    5,800;   -5,670;19,59000
 245,90;   24,240;   -6,390;   -2,740;30,63000
 246,25;   22,960;    6,820;    6,490;16,14000
 246,59;   23,710;   -0,570;   -3,700;24,28000
 246,93;   25,600;    2,300;    2,990;23,30000
 247,28;   22,020;   -0,200;    6,300;22,22000
 247,62;   30,240;    2,240;   -1,330;28,00000
 247,96;   26,050;   -1,880;    3,460;27,93000
 248,31;   18,780;    0,810;    0,160;17,97000
 248,65;   23,280;   -1,220;    3,570;24,50000
 248,99;   27,410;    3,160;    2,260;24,25000
 249,34;   24,650;   -3,090;   -0,370;27,74000
 249,68;   26,790;   -2,680;   -2,150;29,47000
 250,02;   17,640;   -1,620;    0,690;19,26000
 250,37;   24,190;    0,220;    4,070;23,97000
 250,71;   23,650;    6,230;    0,790;17,42000
 251,05;   26,870;    5,030;    0,850;21,84000
 251,40;   11,270;  -16,710;    3,460;27,98000
 251,74;   53,380;   33,770;    1,420;19,61000
 252,08;   85,720;   63,240;    1,190;22,48000
 252,43;   24,790;   -0,100;    3,090;24,89000
 252,77;   24,010;   -2,560;   -0,850;26,57000
 253,11;   25,270;    3,410;   -1,730;21,86000
 253,46;   21,630;    5,340;    3,910;16,29000
 253,80;   25,470;    5,150;    7,110;20,32000
 254,14;   22,870;   -2,210;   -3,160;25,08000
 254,49;   27,600;    5,650;    0,370;21,95000
 254,83;   24,910;    5,200;    6,060;19,71000
 255,17;   19,350;   -2,830;    0,870;22,18000
 255,52;   23,960;   -3,400;    3,320;27,36000
 255,86;   25,740;    2,290;    3,840;23,45000
 256,20;   22,550;   -2,420;    2,190;24,97000
 256,55;   18,520;    3,960;    6,800;14,56000
 256,89;   22,820;   -1,320;   -0,420;24,14000
 257,23;   17,830;    2,140;    4,740;15,69000
 257,57;   30,660;   -1,120;    0,680;31,78000
 257,92;   19,040;    6,090;    9,660;12,95000
 258,26;   30,450;   -0,790;    9,410;31,24000
 258,60;   20,530;    4,550;    0,980;15,98000
 258,95;   24,530;    5,670;    1,980;18,86000
 259,29;   22,870;    7,760;    1,870;15,11000
 259,63;   19,500;   -1,610;    2,470;21,11000
 259,98;   27,580;    1,310;    4,950;26,27000
 260,32;   22,120;    5,910;    3,060;16,21000
 260,66;   18,610;    2,550;   -0,240;16,06000
 261,01;   28,950;    1,140;   -0,910;27,81000
 261,35;   24,580;    0,430;    2,840;24,15000
 261,69;   26,690;   -2,620;    2,780;29,31000
 262,03;   31,570;    1,470;    1,400;30,10000
 262,38;   23,130;   -2,230;   -3,040;25,36000
 262,72;   26,140;   -0,800;    1,950;26,94000
 263,06;   24,530;   -6,590;    3,560;31,12000
 263,41;   32,030;    2,750;    2,600;29,28000
 263,75;   30,910;    4,650;    2,850;26,26000
 264,09;   27,760;    6,420;   -0,340;21,34000
 264,44;   25,190;   -1,110;   -0,250;26,30000
 264,78;   24,300;    6,300;   -1,930;18,00000
 265,12;   24,410;   -1,580;    5,230;25,99000
 265,46;   23,180;    6,890;    2,600;16,29000
 265,81;   16,930;   -0,810;    1,280;17,74000
 266,15;   21,870;    3,030;    4,320;18,84000
 266,49;   27,060;    1,160;    3,370;25,90000
 266,84;   19,940;    7,130;    2,340;12,81000
 267,18;   31,940;   -0,760;    0,120;32,70000
 267,52;   20,790;    6,080;   -0,950;14,71000
 267,86;   23,640;    4,370;    0,400;19,27000
 268,21;   24,490;    5,840;    4,770;18,65000
 268,55;   27,880;    2,410;    1,950;25,47000
 268,89;   23,600;   10,360;    8,760;13,24000
 269,24;   27,670;    0,490;   -1,610;27,18000
 269,58;   26,920;    8,770;    1,950;18,15000
 269,92;   24,680;   -5,160;   -3,810;29,84000
 270,26;   28,590;    3,620;    5,370;24,97000
 270,61;   27,590;   -2,220;    2,330;29,81000
 270,95;   20,300;    3,720;    2,940;16,58000
 271,29;   22,540;   -2,810;   -4,650;25,35000
 271,64;   31,490;   -1,610;   -0,820;33,10000
 271,98;   27,810;   -2,260;    5,320;30,07000
 272,32;   20,630;    8,270;    2,520;12,36000
 272,66;   21,920;    0,580;    3,640;21,34000
 273,01;   20,970;    2,020;    3,890;18,95000
 273,35;   25,140;   -3,930;   -2,080;29,07000
 273,69;   29,380;    4,290;    7,650;25,09000
 274,03;   21,510;    2,210;   -0,080;19,30000
 274,38;   23,410;   -0,420;    2,800;23,83000
 274,72;   22,540;   -1,470;    0,930;24,01000
 275,06;   23,190;   -3,140;    4,260;26,33000
 275,40;   30,430;   -2,760;    2,190;33,19000
 275,75;   26,490;    4,760;   -1,670;21,73000
 276,09;   33,080;   -0,770;    2,750;33,85000
 276,43;   23,700;    1,290;    3,420;22,41000
 276,78;   30,090;   -0,390;    3,970;30,48000
 277,12;   32,980;   -2,000;    4,080;34,98000
 277,46;   25,610;   -3,820;   -1,400;29,43000
 277,80;   15,380;    1,670;    2,660;13,71000
 278,15;   24,800;   -4,710;    0,990;29,51000
 278,49;   26,200;    2,820;    3,910;23,38000
 278,83;   29,000;   -1,350;   -0,830;30,35000
 279,17;   30,680;    2,350;    7,910;28,33000
 279,52;   27,560;    0,060;    0,670;27,50000
 279,86;   25,170;    1,500;    3,730;23,67000
 280,20;   33,360;   -0,850;   -0,050;34,21000
 280,54;   27,460;    0,020;    4,110;27,44000
 280,89;   27,700;    2,700;    2,930;25,00000
 281,23;   32,980;    6,170;    7,110;26,81000
 281,57;   25,610;    0,410;    3,900;25,20000
 281,91;   21,750;    2,070;    9,620;19,68000
 282,26;   33,310;    0,700;   -0,770;32,61000
 282,60;   28,600;    1,350;    3,260;27,25000
 282,94;   23,790;   -3,140;   -6,700;26,93000
 283,28;   28,790;   -1,650;    8,220;30,44000
 283,63;   27,960;    2,290;    3,300;25,67000
 283,97;   21,970;   -4,090;   -2,370;26,06000
 284,31;   28,330;   -1,030;    1,490;29,36000
 284,65;   25,440;    3,370;    0,930;22,07000
 285,00;   29,040;   -1,510;    0,170;30,55000
 285,34;   24,950;    5,200;    2,250;19,75000
 285,68;   25,670;   -9,450;    4,600;35,12000
 286,02;   26,490;    6,440;    2,930;20,05000
 286,37;   19,090;   -2,720;   -2,100;21,81000
 286,71;   27,640;    0,260;    9,880;27,38000
 287,05;   21,350;    2,020;    0,770;19,33000
 287,39;   23,810;   -5,230;    3,340;29,04000
 287,73;   30,850;    0,980;   -0,150;29,87000
 288,08;   25,900;    8,020;    4,200;17,88000
 288,42;   23,240;    0,220;   -0,810;23,02000
 288,76;   26,320;   -4,560;    1,980;30,88000
 289,10;   28,460;    4,030;   -2,180;24,43000
 289,45;   26,990;    4,230;    2,290;22,76000
 289,79;   29,580;   -2,510;    2,270;32,09000
 290,13;   30,490;    4,020;    7,880;26,47000
 290,47;   33,710;   -3,250;   -1,950;36,96000
 290,82;   24,760;   -2,370;    3,070;27,13000
 291,16;   25,790;   -5,620;   -1,830;31,41000
 291,50;   27,560;    6,570;   -0,810;20,99000
 291,84;   29,110;    6,720;   -1,240;22,39000
 292,18;   25,520;    3,400;    7,510;22,12000
 292,53;   28,300;   -0,920;    2,270;29,22000
 292,87;   22,940;   -0,670;    6,240;23,61000
 293,21;   28,460;    0,680;   -3,400;27,78000
 293,55;   28,670;   -5,030;    7,800;33,70000
 293,90;   25,690;    4,300;    1,580;21,39000
 294,24;   23,250;    3,570;    2,360;19,68000
 294,58;   26,230;   -6,140;   -2,350;32,37000
 294,92;   25,700;    2,430;    4,480;23,27000
 295,26;   32,600;   -5,600;   -0,060;38,20000
 295,61;   23,610;   -3,700;    2,590;27,31000
 295,95;   31,800;   -3,550;    2,900;35,35000
 296,29;   23,810;   -3,340;    2,790;27,15000
 296,63;   27,790;    1,010;    1,350;26,78000
 296,97;   28,670;   -1,790;    3,880;30,46000
 297,32;   25,210;   -2,130;   -4,280;27,34000
 297,66;   29,170;    0,930;   -0,620;28,24000
 298,00;   31,350;   -1,520;    3,450;32,87000
 298,34;   24,500;    5,060;    0,800;19,44000
 298,69;   23,770;    2,820;    2,400;20,95000
 299,03;   29,350;   -4,000;    1,820;33,35000
 299,37;   29,680;   -2,050;   -0,940;31,73000
 299,71;   26,930;   -0,060;   -1,460;26,99000
 300,05;   30,630;    2,230;   -0,590;28,40000
 300,40;   31,630;    3,650;    5,780;27,98000
 300,74;   28,670;    2,520;    3,080;26,15000
 301,08;   28,770;    2,150;    9,750;26,62000
 301,42;   28,080;   -0,770;    0,430;28,85000
 301,76;   24,910;    0,770;    3,560;24,14000
 302,11;   32,770;   -1,950;    1,560;34,72000
 302,45;   22,910;   -4,630;    3,060;27,54000
 302,79;   31,120;   -3,190;   -0,070;34,31000
 303,13;   29,660;    2,900;    0,920;26,76000
 303,47;   30,430;    1,780;    2,590;28,65000
 303,81;   29,250;    4,320;    6,370;24,93000
 304,16;   23,830;   -5,410;    0,950;29,24000
 304,50;   27,270;    7,380;    5,220;19,89000
 304,84;   27,790;   -6,790;    3,500;34,58000
 305,18;   30,840;    4,920;    3,990;25,92000
 305,52;   34,950;    6,110;    0,240;28,84000
 305,87;   27,530;   -0,510;   -3,520;28,04000
 306,21;   24,030;    3,850;   -4,610;20,18000
 306,55;   30,260;    1,780;    2,670;28,48000
 306,89;   27,970;    2,950;    2,350;25,02000
 307,23;   32,620;    6,360;    1,320;26,26000
 307,58;   29,950;   -1,910;    1,880;31,86000
 307,92;   32,230;    2,260;    4,640;29,97000
 308,26;   28,970;   -2,240;   -1,550;31,21000
 308,60;   29,580;    2,620;    1,660;26,96000
 308,94;   34,680;    3,640;   -0,860;31,04000
 309,28;   33,140;    1,350;    3,500;31,79000
 309,63;   33,310;   -0,900;   -2,560;34,21000
 309,97;   31,470;    1,020;   10,570;30,45000
 310,31;   32,260;    1,340;   -0,100;30,92000
 310,65;   29,650;    1,290;    3,820;28,36000
 310,99;   33,330;   -1,230;    2,240;34,56000
 311,33;   24,170;    1,290;    2,420;22,88000
 311,68;   27,020;   -2,370;    0,600;29,39000
 312,02;   25,820;    1,980;  -15,330;23,84000
 312,36;   29,470;   -2,070;   23,440;31,54000
 312,70;   34,690;    6,510;   61,440;28,18000
 313,04;   33,650;   -2,050;    1,810;35,70000
 313,38;   19,140;   -3,640;   -3,880;22,78000
 313,73;   33,080;    0,310;   -2,470;32,77000
 314,07;   24,370;   10,250;    5,190;14,12000
 314,41;   23,550;   -1,580;    4,040;25,13000
 314,75;   22,570;   -2,070;    5,810;24,64000
 315,09;   30,340;    5,610;    1,100;24,73000
 315,43;   30,220;    3,730;    5,490;26,49000
 315,78;   36,740;    2,900;    0,860;33,84000
 316,12;   33,970;    2,090;    5,920;31,88000
 316,46;   30,520;   -8,560;    5,510;39,08000
 316,80;   23,550;    5,210;    1,790;18,34000
 317,14;   32,100;    5,860;    3,890;26,24000
 317,48;   26,190;    0,720;    3,190;25,47000
 317,83;   30,690;    1,350;   -3,050;29,34000
 318,17;   23,820;    4,410;    1,620;19,41000
 318,51;   36,110;   -0,470;    1,140;36,58000
 318,85;   31,170;    7,550;   -1,100;23,62000
 319,19;   26,720;   -1,720;   -3,990;28,44000
 319,53;   26,690;    0,210;    9,450;26,48000
 319,87;   32,630;   -2,600;   -3,650;35,23000
 320,22;   34,290;   -1,880;    8,080;36,17000
 320,56;   32,000;    0,590;    3,190;31,41000
 320,90;   26,070;   -2,030;    7,300;28,10000
 321,24;   34,340;   -0,220;    8,820;34,56000
 321,58;   29,160;    5,220;   -2,580;23,94000
 321,92;   30,520;   -1,380;   -1,490;31,90000
 322,26;   27,890;    2,020;   -3,760;25,87000
 322,61;   33,140;   -0,480;    3,520;33,62000
 322,95;   28,370;    1,150;    0,190;27,22000
 323,29;   31,240;   -4,290;    2,140;35,53000
 323,63;   27,730;    2,440;    1,200;25,29000
 323,97;   36,610;   -3,090;    2,870;39,70000
 324,31;   26,990;    1,170;    0,730;25,82000
 324,65;   31,080;    3,430;    5,680;27,65000
 325,00;   27,490;   -1,760;    2,660;29,25000
 325,34;   32,670;    0,140;   -0,430;32,53000
 325,68;   30,300;    1,810;   -0,890;28,49000
 326,02;   31,930;    4,490;    4,820;27,44000
 326,36;   31,560;    1,140;    3,430;30,42000
 326,70;   26,430;    0,790;   -1,680;25,64000
 327,04;   26,180;    2,180;    4,730;24,00000
 327,38;   33,850;    0,770;    2,400;33,08000
 327,73;   31,510;    2,100;    4,930;29,41000
 328,07;   31,320;   -0,420;    3,290;31,74000
 328,41;   27,620;    4,270;    1,050;23,35000
 328,75;   29,440;   -3,520;    1,850;32,96000
 329,09;   32,700;    2,030;    1,130;30,67000
 329,43;   34,240;   -4,370;    0,440;38,61000
 329,77;   35,690;    5,380;    3,080;30,31000
 330,11;   32,810;    1,920;   -2,830;30,89000
 330,46;   30,790;    0,870;    3,940;29,92000
 330,80;   34,320;    1,770;   -1,490;32,55000
 331,14;   28,910;    3,520;    2,840;25,39000
 331,48;   28,470;   -5,420;    1,950;33,89000
 331,82;   28,910;    9,840;    5,330;19,07000
 332,16;   32,760;   -2,590;   -5,490;35,35000
 332,50;   31,640;   -0,490;    0,370;32,13000
 332,84;   38,410;   -6,950;    4,550;45,36000
 333,18;   33,640;   -3,980;    3,170;37,62000
 333,53;   33,850;    1,570;   -1,670;32,28000
 333,87;   35,410;   -0,500;    4,960;35,91000
 334,21;   36,000;   -4,640;    4,440;40,64000
 334,55;   31,870;   -0,530;    2,210;32,40000
 334,89;   32,620;   -2,930;    2,760;35,55000
 335,23;   30,100;    7,430;   -0,890;22,67000
 335,57;   29,250;    7,540;    2,290;21,71000
 335,91;   30,170;   -3,400;    4,710;33,57000
 336,25;   29,100;    0,600;    4,970;28,50000
 336,60;   35,300;    4,510;    1,540;30,79000
 336,94;   35,790;    1,120;   -0,280;34,67000
 337,28;   31,890;    0,820;    2,850;31,07000
 337,62;   32,120;   -1,550;   -0,390;33,67000
 337,96;   27,610;   -8,520;    2,040;36,13000
 338,30;   58,300;   27,330;    1,880;30,97000
 338,64;   92,020;   61,920;    6,570;30,10000
 338,98;   35,770;    5,670;   -2,000;30,10000
 339,32;   31,110;    5,090;    0,460;26,02000
 339,66;   36,720;    2,970;   -0,800;33,75000
 340,01;   27,470;   -1,950;    1,760;29,42000
 340,35;   33,410;    0,130;   -0,530;33,28000
 340,69;   34,060;    8,670;    3,300;25,39000
 341,03;   31,520;   -1,260;    2,970;32,78000
 341,37;   23,560;    4,590;    6,070;18,97000
 341,71;   34,290;    2,480;   -3,260;31,81000
 342,05;   35,820;    8,320;    2,520;27,50000
 342,39;   35,600;   -3,890;    1,510;39,49000
 342,73;   32,220;   -3,650;    2,250;35,87000
 343,07;   31,450;    0,790;   -2,210;30,66000
 343,41;   32,750;    0,690;    1,990;32,06000
 343,75;   38,170;    0,350;   -5,070;37,82000
 344,10;   32,750;   -1,330;   -0,490;34,08000
 344,44;   39,030;    2,000;    4,160;37,03000
 344,78;   34,390;    0,960;    3,320;33,43000
 345,12;   43,490;   -1,240;   -2,100;44,73000
 345,46;   34,040;    1,080;    3,260;32,96000
 345,80;   31,980;    4,190;    4,200;27,79000
 346,14;   31,000;    3,150;    7,400;27,85000
 346,48;   41,350;    1,710;    7,670;39,64000
 346,82;   31,670;    3,760;    2,900;27,91000
 347,16;   35,050;    0,650;   -0,380;34,40000
 347,50;   33,120;    4,800;    4,620;28,32000
 347,84;   40,450;    1,400;   -0,340;39,05000
 348,18;   42,780;    2,540;    0,100;40,24000
 348,53;   38,720;    1,070;    7,220;37,65000
 348,87;   36,410;    5,420;    4,640;30,99000
 349,21;   47,140;   -1,690;    1,010;48,83000
 349,55;   38,520;    2,680;   -1,310;35,84000
 349,89;   39,410;   -0,360;    3,290;39,77000
 350,23;   39,050;   -3,110;   -0,650;42,16000
 350,57;   39,040;    3,550;    1,280;35,49000
 350,91;   38,230;   10,920;    2,260;27,31000
 351,25;   40,380;   -2,160;    2,890;42,54000
 351,59;   36,580;   -1,580;    8,760;38,16000
 351,93;   34,010;   -5,930;    3,960;39,94000
 352,27;   31,620;   10,190;    5,210;21,43000
 352,61;   29,670;   -0,190;    2,680;29,86000
 352,95;   35,930;    0,420;    7,500;35,51000
 353,29;   24,400;    5,110;    0,070;19,29000
 353,63;   27,650;   -5,890;   -3,240;33,54000
 353,98;   34,160;    1,310;   -1,200;32,85000
 354,32;   39,010;   -1,950;   -3,600;40,96000
 354,66;   37,160;   -4,980;   -0,790;42,14000
 355,00;   31,770;    5,930;    4,110;25,84000
 355,34;   39,770;    4,060;   -0,090;35,71000
 355,68;   33,210;    1,550;   -3,200;31,66000
 356,02;   42,610;   -3,970;   -0,450;46,58000
 356,36;   39,880;    5,980;    9,920;33,90000
 356,70;   39,150;   -5,410;    3,200;44,56000
 357,04;   38,460;    1,410;    4,710;37,05000
 357,38;   37,050;    3,960;    0,020;33,09000
 357,72;   34,670;    1,640;    5,560;33,03000
 358,06;   38,650;    3,010;   -2,100;35,64000
 358,40;   31,920;    5,860;   -2,150;26,06000
 358,74;   38,060;   -2,010;    4,930;40,07000
 359,08;   31,760;    0,910;    3,100;30,85000
 359,42;   29,810;   -0,030;    0,930;29,84000
 359,76;   35,320;   -1,430;    7,260;36,75000
 360,10;   35,720;   -3,670;   -0,030;39,39000
 360,44;   34,200;    6,270;   -0,080;27,93000
 360,78;   42,310;    3,260;   -0,890;39,05000
 361,12;   34,300;    1,260;    2,740;33,04000
 361,46;   38,580;   -0,890;    2,110;39,47000
 361,80;   31,170;    3,500;   -1,090;27,67000
 362,15;   28,180;    2,350;   -2,300;25,83000
 362,49;   35,850;    3,440;    3,670;32,41000
 362,83;   34,370;    7,790;    1,900;26,58000
 363,17;   34,850;   -1,050;    6,090;35,90000
 363,51;   33,370;   -3,500;   -0,830;36,87000
 363,85;   33,290;    0,760;    2,930;32,53000
 364,19;   34,290;    0,280;    3,810;34,01000
 364,53;   27,970;   -0,620;   -3,340;28,59000
 364,87;   37,460;   -4,260;    4,170;41,72000
 365,21;   36,000;    5,450;    1,720;30,55000
 365,55;   42,500;   -3,160;    0,380;45,66000
 365,89;   39,130;    9,220;    8,710;29,91000
 366,23;   39,040;   -1,590;    4,580;40,63000
 366,57;   39,970;    7,820;    5,580;32,15000
 366,91;   33,400;   -3,550;   -0,610;36,95000
 367,25;   39,320;   -1,600;    2,390;40,92000
 367,59;   34,350;    0,780;    1,360;33,57000
 367,93;   37,950;    5,560;    2,410;32,39000
 368,27;   37,120;   -4,650;   -2,920;41,77000
 368,61;   35,120;    7,230;    2,710;27,89000
 368,95;   31,070;   -4,480;    3,060;35,55000
 369,29;   38,280;    4,540;    1,940;33,74000
 369,63;   34,890;    2,010;   -4,530;32,88000
 369,97;   33,210;    5,790;    2,720;27,42000
 370,31;   29,010;   -0,190;    2,380;29,20000
 370,65;   38,430;   -2,000;    6,590;40,43000
 370,99;   33,050;    3,060;    3,990;29,99000
 371,33;   31,560;    0,890;   -2,590;30,67000
 371,67;   39,110;   -6,990;    2,270;46,10000
 372,01;   35,120;    4,420;    4,790;30,70000
 372,35;   34,860;   -4,540;    3,510;39,40000
 372,69;   33,910;    6,690;    8,190;27,22000
 373,03;   35,500;   -4,740;    0,530;40,24000
 373,37;   35,930;    3,060;   -4,260;32,87000
 373,71;   37,110;   -0,020;   -6,870;37,13000
 374,05;   36,730;    7,180;    5,720;29,55000
 374,39;   36,820;    0,370;    5,190;36,45000
 374,73;   32,620;    3,790;    4,230;28,83000
 375,07;   37,490;    4,200;    5,730;33,29000
 375,41;   37,630;   -2,610;    6,040;40,24000
 375,75;   34,670;    2,350;   -1,440;32,32000
 376,09;   33,170;    1,670;    2,410;31,50000
 376,43;   35,390;   -2,240;   -5,140;37,63000
 376,77;   33,800;    2,170;    2,020;31,63000
 377,11;   35,120;    3,300;    2,730;31,82000
 377,45;   37,980;    8,730;    1,040;29,25000
 377,79;   39,200;    0,570;   -7,090;38,63000
 378,13;   37,340;    5,010;   10,500;32,33000
 378,47;   35,810;   -5,230;   -0,100;41,04000
 378,81;   34,810;   -3,520;   -2,430;38,33000
 379,15;   46,030;    2,330;    4,630;43,70000
 379,49;   39,270;    1,760;    7,300;37,51000
 379,83;   38,790;    1,850;   -3,710;36,94000
 380,17;   38,340;    4,500;    1,040;33,84000
 380,51;   33,650;    2,220;    5,750;31,43000
 380,85;   33,830;    4,060;   -1,870;29,77000
 381,19;   34,150;    4,710;   -2,690;29,44000
 381,53;   35,410;    3,760;    0,410;31,65000
 381,87;   34,120;    4,690;    2,200;29,43000
 382,21;   37,710;    2,070;    3,600;35,64000
 382,55;   33,150;    1,800;    6,140;31,35000
 382,89;   30,390;    0,120;    4,530;30,27000
 383,23;   36,500;   -1,840;   -0,420;38,34000
 383,56;   29,840;    3,750;   -2,320;26,09000
 383,90;   32,750;    1,990;    0,330;30,76000
 384,24;   31,850;    3,300;    1,240;28,55000
 384,58;   33,380;   -5,510;    3,450;38,89000
 384,92;   34,610;    2,310;    2,060;32,30000
 385,26;   32,930;    5,360;  -11,440;27,57000
 385,60;   39,820;    3,090;   33,870;36,73000
 385,94;   36,640;   -5,580;   59,610;42,22000
 386,28;   38,770;    5,250;   -1,900;33,52000
 386,62;   39,900;    0,060;    7,620;39,84000
 386,96;   35,280;    6,170;    1,740;29,11000
 387,30;   32,570;    1,750;   -0,690;30,82000
 387,64;   39,110;    1,050;    9,570;38,06000
 387,98;   32,430;   -0,960;   -1,160;33,39000
 388,32;   40,680;    2,430;    3,260;38,25000
 388,66;   35,260;    4,950;    2,420;30,31000
 389,00;   37,940;   -1,320;    4,520;39,26000
 389,34;   44,960;   -3,990;   -0,240;48,95000
 389,68;   35,720;   -7,120;    3,370;42,84000
 390,02;   40,250;   -3,640;    0,880;43,89000
 390,36;   38,690;   -3,290;    4,370;41,98000
 390,70;   43,300;   -8,450;   -2,130;51,75000
 391,04;   35,870;   -2,610;    4,320;38,48000
 391,38;   37,390;    0,670;    0,090;36,72000
 391,71;   38,170;    8,020;    2,280;30,15000
 392,05;   36,190;   -4,120;    5,720;40,31000
 392,39;   40,300;    0,980;    1,990;39,32000
 392,73;   40,090;    4,500;   -0,370;35,59000
 393,07;   41,940;   -0,600;    2,500;42,54000
 393,41;   41,320;   -6,150;    0,940;47,47000
 393,75;   35,260;    5,190;   -2,340;30,07000
 394,09;   41,850;   -0,890;    3,860;42,74000
 394,43;   42,000;    3,510;    1,470;38,49000
 394,77;   49,910;   -1,060;   -5,040;50,97000
 395,11;   41,330;    1,770;   -1,530;39,56000
 395,45;   50,180;   -2,030;    0,150;52,21000
 395,79;   42,830;    4,480;    8,430;38,35000
 396,13;   42,460;    2,460;    2,220;40,00000
 396,47;   49,350;    3,600;    2,580;45,75000
 396,81;   48,510;    4,580;    4,350;43,93000
 397,14;   59,920;    4,790;    4,250;55,13000
 397,48;   59,340;   -4,180;    1,190;63,52000
 397,82;   55,890;    1,700;    4,150;54,19000
 398,16;   54,770;   -2,490;    4,190;57,26000
 398,50;   53,300;    6,350;    7,140;46,95000
 398,84;   64,390;   -0,340;   -0,610;64,73000
 399,18;   56,390;    7,430;   -1,870;48,96000
 399,52;   64,190;    4,790;    0,490;59,40000
 399,86;   69,690;    6,830;    1,400;62,86000
 400,20;   68,050;   -4,560;   -3,620;72,61000
 400,54;   75,790;    6,820;    2,300;68,97000
 400,88;   70,930;    3,290;   -4,160;67,64000
 401,22;   75,650;    1,110;   -0,530;74,54000
 401,55;   77,240;   10,890;   -3,210;66,35000
 401,89;   83,380;    3,760;    8,670;79,62000
 402,23;   87,460;   -0,850;    6,130;88,31000
 402,57;   89,640;    7,160;    4,770;82,48000
 402,91;   92,970;   -2,360;    1,650;95,33000
 403,25;   95,580;   -5,120;    3,690;100,70000
 403,59;  105,500;   -0,470;    1,960;105,97000
 403,93;  112,430;   -0,670;    7,590;113,10000
 404,27;  114,270;   -0,520;   -1,950;114,79000
 404,61;  121,100;    1,610;   -0,370;119,49000
 404,95;  129,280;   -0,880;    0,380;130,16000
 405,28;  134,040;    1,680;    8,580;132,36000
 405,62;  144,540;   -0,140;    1,890;144,68000
 405,96;  159,120;    1,950;    2,710;157,17000
 406,30;  168,750;    5,120;   -4,150;163,63000
 406,64;  166,100;    5,260;    1,360;160,84000
 406,98;  180,900;   -2,100;   -1,920;183,00000
 407,32;  191,400;    3,910;    1,550;187,49000
 407,66;  209,230;   -1,090;    3,360;210,32000
 408,00;  225,680;    1,290;    1,610;224,39000
 408,34;  230,670;   -3,140;   -6,670;233,81000
 408,67;  246,640;    4,070;   -1,990;242,57000
 409,01;  278,780;    1,770;    2,160;277,01000
 409,35;  284,890;    3,030;    8,550;281,86000
 409,69;  295,700;    3,060;    3,070;292,64000
 410,03;  323,060;    5,330;   -1,620;317,73000
 410,37;  362,900;   -0,780;   -5,310;363,68000
 410,71;  366,420;   -3,670;    2,520;370,09000
 411,05;  417,710;   -2,890;    3,940;420,60000
 411,39;  433,260;    2,990;    6,160;430,27000
 411,72;  449,500;   -0,620;    0,630;450,12000
 412,06;  477,960;    0,980;    5,330;476,98000
 412,40;  542,500;   -5,090;    3,100;547,59000
 412,74;  575,450;    3,540;    0,490;571,91000
 413,08;  627,170;   -1,910;    0,910;629,08000
 413,42;  663,500;    5,010;    5,270;658,49000
 413,76;  700,680;   -0,100;    3,260;700,78000
 414,10;  750,240;    3,160;    4,470;747,08000
 414,44;  773,190;   -5,230;   -4,520;778,42000
 414,77;  871,810;    5,710;   -3,320;866,10000
 415,11;  951,920;    1,650;    1,630;950,27000
 415,45; 1053,380;    1,770;    6,710;1051,61000
 415,79; 1031,920;   -0,590;   -2,010;1032,51000
 416,13; 1085,670;    3,480;    7,230;1082,19000
 416,47; 1157,930;   -1,720;   -1,380;1159,65000
 416,81; 1251,960;    1,670;    4,880;1250,29000
 417,15; 1311,390;   -2,150;    8,810;1313,54000
 417,48; 1496,700;    1,800;    7,260;1494,90000
 417,82; 1586,700;    4,070;    5,450;1582,63000
 418,16; 1555,940;    9,070;   -1,950;1546,87000
 418,50; 1773,480;   -2,240;   -3,870;1775,72000
 418,84; 1878,780;    2,530;    4,950;1876,25000
 419,18; 2041,530;   -0,570;   -5,380;2042,10000
 419,52; 2058,190;   -1,510;    3,310;2059,70000
 419,85; 2264,710;    2,780;   -1,450;2261,93000
 420,19; 2420,710;    3,280;    3,320;2417,43000
 420,53; 2445,200;    0,470;    1,230;2444,73000
 420,87; 2648,840;    3,840;    4,470;2645,00000
 421,21; 2915,560;   -4,040;    8,320;2919,60000
 421,55; 3083,210;    4,410;    1,960;3078,80000
 421,89; 3130,880;    3,420;   -3,940;3127,46000
 422,22; 3352,630;    9,610;    4,640;3343,02000
 422,56; 3477,130;   -2,430;    0,050;3479,56000
 422,90; 3599,090;   -5,180;    7,810;3604,27000
 423,24; 4001,480;    9,720;    0,360;3991,76000
 423,58; 3848,270;    0,850;    7,660;3847,42000
 423,92; 4604,700;  -10,550;   -1,020;4615,25000
 424,26; 4859,720;   34,540;    0,610;4825,18000
 424,59; 5016,910;   63,150;   -2,350;4953,76000
 424,93; 5331,190;    3,700;    3,240;5327,49000
 425,27; 5390,930;    2,020;    2,000;5388,91000
 425,61; 5643,410;   -3,240;    1,440;5646,65000
 425,95; 5910,290;    3,580;    0,380;5906,71000
 426,29; 5995,500;    1,480;    0,440;5994,02000
 426,62; 6787,440;    5,340;    9,480;6782,10000
 426,96; 6628,030;   -1,190;    1,960;6629,22000
 427,30; 7134,820;    0,130;   -3,270;7134,69000
 427,64; 7423,880;    4,730;    1,560;7419,15000
 427,98; 7535,900;   -0,620;    4,510;7536,52000
 428,32; 8108,550;    0,280;    3,620;8108,27000
 428,65; 8578,080;   -3,620;    0,270;8581,70000
 428,99; 9272,030;    5,740;    2,990;9266,29000
 429,33; 8866,810;    0,420;    1,180;8866,39000
 429,67; 9126,230;    2,450;    5,380;9123,78000
 430,01; 9915,050;   -1,960;   -0,520;9917,01000
 430,35;10548,150;    2,340;    4,970;10545,81000
 430,68;11240,020;    1,650;   -0,330;11238,37000
 431,02;10772,060;   -0,240;    4,850;10772,30000
 431,36;12357,060;   -0,210;    1,100;12357,27000
 431,70;11931,600;   -1,380;    5,090;11932,98000
 432,04;12451,310;   -4,300;   -1,580;12455,61000
 432,38;13664,610;    0,550;    5,880;13664,06000
 432,71;14407,720;    4,740;    3,300;14402,98000
 433,05;14171,720;    6,070;    4,190;14165,65000
 433,39;14162,050;    6,220;    0,230;14155,83000
 433,73;15513,150;   -1,620;   -5,160;15514,77000
 434,07;16236,360;   -3,640;    0,870;16240,00000
 434,41;16253,640;   -0,450;    3,120;16254,09000
 434,74;16334,630;   -1,210;   -3,120;16335,84000
 435,08;17963,660;   -4,330;    3,140;17967,99000
 435,42;19116,840;    2,950;   -0,680;19113,89000
 435,76;19385,930;   -0,190;    7,110;19386,12000
 436,10;20260,510;    1,830;   -1,600;20258,68000
 436,43;20143,270;    1,840;   -3,020;20141,43000
 436,77;21014,870;    0,580;    5,450;21014,29000
 437,11;23010,410;    7,710;    2,250;23002,70000
 437,45;22990,670;    1,460;    5,160;22989,21000
 437,79;23023,140;   -1,160;    1,970;23024,30000
 438,12;24864,760;   -3,100;   -2,740;24867,86000
 438,46;26881,210;    3,260;    1,690;26877,95000
 438,80;27039,480;    0,590;   -2,840;27038,89000
 439,14;27475,600;    0,790;   -1,260;27474,81000
 439,48;30992,500;   -2,280;    1,780;30994,78000
 439,81;30389,630;    3,820;   -2,440;30385,81000
 440,15;31445,790;    0,880;   -0,800;31444,91000
 440,49;31827,350;    9,710;    6,490;31817,64000
 440,83;33486,230;   -4,390;   -2,880;33490,62000
 441,17;35773,410;    5,320;    1,020;35768,09000
 441,50;38217,870;   -4,590;    6,310;38222,46000
 441,84;39075,610;    4,010;    2,470;39071,60000
 442,18;38772,890;    0,250;    2,490;38772,64000
 442,52;41035,900;    2,750;    0,850;41033,15000
 442,86;40379,870;    5,700;    2,850;40374,17000
 443,19;43176,580;   -1,800;    3,530;43178,38000
 443,53;47925,640;    0,460;    3,990;47925,18000
 443,87;48067,230;    2,110;    0,620;48065,12000
 444,21;46781,870;    2,190;   -0,190;46779,68000
 444,55;46488,120;   -0,420;   -1,810;46488,54000
 444,88;50801,430;    5,640;    6,350;50795,79000
 445,22;52668,590;   -0,040;    3,220;52668,63000
 445,56;52467,200;   -1,130;    1,360;52468,33000
 445,90;51466,440;    1,280;    6,110;51465,16000
 446,23;51844,970;   -2,310;   -4,600;51847,28000
 446,57;51746,800;   -1,030;   -3,300;51747,83000
 446,91;53682,780;    2,940;    3,300;53679,84000
 447,25;54038,770;    1,990;   -3,760;54036,78000
 447,59;53768,420;   -3,630;   -1,610;53772,05000
 447,92;56202,970;    8,890;   -1,410;56194,08000
 448,26;56689,790;    1,510;    0,750;56688,28000
 448,60;53009,580;    2,920;    1,180;53006,66000
 448,94;54245,130;    0,700;    3,350;54244,43000
 449,27;52766,560;    3,480;   -0,710;52763,08000
 449,61;53090,570;    0,510;    0,300;53090,06000
 449,95;52883,450;    7,200;    2,060;52876,25000
 450,29;52005,810;    1,030;    2,850;52004,78000
 450,63;50032,450;    7,430;    0,820;50025,02000
 450,96;51595,790;    1,670;   -7,790;51594,12000
 451,30;50129,080;    0,650;    4,530;50128,43000
 451,64;50213,100;    2,150;   -1,050;50210,95000
 451,98;45942,020;    4,600;   -1,040;45937,42000
 452,31;44705,330;    2,430;   -2,660;44702,90000
 452,65;43860,340;    0,710;    4,490;43859,63000
 452,99;41587,370;    0,490;    6,180;41586,88000
 453,33;39828,210;    0,340;    0,980;39827,87000
 453,66;40795,390;    2,910;   -4,470;40792,48000
 454,00;38807,080;    5,380;   -0,360;38801,70000
 454,34;35014,930;    2,300;    2,280;35012,63000
 454,68;36950,880;   -1,780;    1,380;36952,66000
 455,01;33140,990;    0,380;   -1,880;33140,61000
 455,35;32584,210;   -3,670;    3,650;32587,88000
 455,69;31881,290;    4,900;    1,700;31876,39000
 456,03;29416,580;    3,650;    5,610;29412,93000
 456,36;27906,510;   -2,230;    1,410;27908,74000
 456,70;27413,090;    7,850;    2,680;27405,24000
 457,04;28496,420;   -0,670;    2,530;28497,09000
 457,38;24235,220;   -1,520;   -0,030;24236,74000
 457,71;24167,560;    3,670;   -3,490;24163,89000
 458,05;23506,220;    1,440;  -10,080;23504,78000
 458,39;23115,730;    2,150;   33,160;23113,58000
 458,73;21917,650;    4,340;   57,340;21913,31000
 459,06;21603,780;    1,820;    6,920;21601,96000
 459,40;21249,810;    1,270;    7,730;21248,54000
 459,74;22083,120;    3,220;    1,140;22079,90000
 460,08;21379,520;    1,460;   13,600;21378,06000
 460,41;19650,520;   -1,270;   -4,690;19651,79000
 460,75;20215,440;    0,090;    0,600;20215,35000
 461,09;20415,940;   -2,740;    0,830;20418,68000
 461,43;19455,650;    4,390;   -2,320;19451,26000
 461,76;19090,670;   -0,220;    2,630;19090,89000
 462,10;18692,910;    8,450;    9,230;18684,46000
 462,44;18527,040;   -1,940;    5,490;18528,98000
 462,77;18711,720;   -2,110;    5,710;18713,83000
 463,11;17284,820;  -10,480;   -1,930;17295,30000
 463,45;18082,870;    2,070;    1,210;18080,80000
 463,79;18066,050;    2,160;   -1,710;18063,89000
 464,12;17040,900;    6,110;    6,320;17034,79000
 464,46;17236,830;   -1,640;    6,990;17238,47000
 464,80;16788,990;   -2,310;    0,520;16791,30000
 465,14;15315,560;    0,480;    4,860;15315,08000
 465,47;15392,140;   -0,130;   11,350;15392,27000
 465,81;15644,580;    0,430;   -5,620;15644,15000
 466,15;15603,670;    6,170;    0,110;15597,50000
 466,48;15497,970;   -2,920;    1,230;15500,89000
 466,82;14943,360;    9,780;   -2,590;14933,58000
 467,16;14625,040;    7,300;    1,610;14617,74000
 467,50;13758,560;    0,980;    4,120;13757,58000
 467,83;13682,980;    3,260;   -1,070;13679,72000
 468,17;13385,140;    0,470;    5,720;13384,67000
 468,51;13179,850;   -0,740;    1,000;13180,59000
 468,84;12962,470;   -0,300;    6,910;12962,77000
 469,18;12630,020;    1,210;   -6,220;12628,81000
 469,52;12637,210;    4,850;    0,920;12632,36000
 469,86;11861,600;   -3,110;    6,540;11864,71000
 470,19;11389,290;   -1,330;   -1,060;11390,62000
 470,53;11428,560;    6,250;    0,530;11422,31000
 470,87;11570,870;    7,450;    4,140;11563,42000
 471,20;10810,220;    6,170;   -6,030;10804,05000
 471,54;10188,560;    2,630;    4,770;10185,93000
 471,88;10086,190;    1,170;   -1,790;10085,02000
 472,21;10023,700;   11,330;   -5,290;10012,37000
 472,55; 9748,950;    5,150;    6,290;9743,80000
 472,89; 9650,210;    1,150;    4,440;9649,06000
 473,23; 9544,460;    0,180;   -0,090;9544,28000
 473,56; 9220,690;   -2,690;    9,310;9223,38000
 473,90; 9238,700;    2,850;    0,330;9235,85000
 474,24; 9094,000;    7,010;    1,450;9086,99000
 474,57; 9235,200;   -4,470;    7,090;9239,67000
 474,91; 8598,470;    0,360;    3,950;8598,11000
 475,25; 8306,830;    2,080;   -2,250;8304,75000
 475,58; 8584,540;    3,790;    3,030;8580,75000
 475,92; 8375,320;    0,120;   -3,270;8375,20000
 476,26; 8384,970;    3,800;   -0,560;8381,17000
 476,59; 8324,330;    3,400;    5,230;8320,93000
 476,93; 8228,020;   -6,030;    3,800;8234,05000
 477,27; 8353,820;   -8,230;    6,300;8362,05000
 477,61; 8220,030;    7,840;   -5,360;8212,19000
 477,94; 8104,000;   -0,100;    1,800;8104,10000
 478,28; 8238,950;   -5,540;   -0,100;8244,49000
 478,62; 8294,480;    5,380;   -1,240;8289,10000
 478,95; 7949,080;    7,460;    1,000;7941,62000
 479,29; 7994,250;   -1,920;    7,660;7996,17000
 479,63; 8122,180;    4,880;    5,480;8117,30000
 479,96; 7940,060;   -3,700;   -3,850;7943,76000
 480,30; 7855,860;    4,380;    1,970;7851,48000
 480,64; 8010,870;    1,890;   -1,970;8008,98000
 480,97; 7953,340;    2,660;    0,860;7950,68000
 481,31; 7893,700;    2,260;   -3,520;7891,44000
 481,65; 7853,980;    6,710;    0,380;7847,27000
 481,98; 7894,240;   -2,080;   -1,670;7896,32000
 482,32; 7875,070;   -1,490;    3,800;7876,56000
 482,66; 7822,460;   -4,010;    4,790;7826,47000
 482,99; 7835,540;    7,060;    0,380;7828,48000
 483,33; 7714,160;    3,300;    2,510;7710,86000
 483,67; 7902,580;    2,840;    2,390;7899,74000
 484,00; 7772,760;   -5,010;   -2,890;7777,77000
 484,34; 7776,440;   -4,890;    0,950;7781,33000
 484,68; 7841,540;    4,550;    0,430;7836,99000
 485,01; 7716,480;   -1,540;    7,470;7718,02000
 485,35; 7861,550;   -1,350;   -0,050;7862,90000
 485,69; 7893,990;    2,070;    5,140;7891,92000
 486,02; 7917,100;    7,160;    4,750;7909,94000
 486,36; 7904,680;   -0,640;    0,860;7905,32000
 486,70; 7885,270;   -0,940;    2,090;7886,21000
 487,03; 8005,880;   -2,080;   -3,960;8007,96000
 487,37; 8143,590;   -2,600;    8,760;8146,19000
 487,70; 8142,010;    2,600;   -2,870;8139,41000
 488,04; 8226,420;    0,290;   -2,980;8226,13000
 488,38; 8307,440;    2,940;    5,990;8304,50000
 488,71; 8422,010;    4,780;    8,920;8417,23000
 489,05; 8550,690;    2,660;   -2,310;8548,03000
 489,39; 8658,970;   -1,300;   -1,580;8660,27000
 489,72; 8744,350;    6,670;   -0,500;8737,68000
 490,06; 8888,050;   -5,680;    6,880;8893,73000
 490,40; 9058,180;   -0,360;    9,690;9058,54000
 490,73; 9203,580;    0,050;    2,160;9203,53000
 491,07; 9409,420;    0,370;    2,420;9409,05000
 491,41; 9640,390;    1,250;    5,800;9639,14000
 491,74; 9739,940;    0,310;   -0,140;9739,63000
 492,08;10003,030;    0,690;    8,530;10002,34000
 492,41;10160,420;    1,310;   -1,300;10159,11000
 492,75;10481,400;   -1,760;   -0,030;10483,16000
 493,09;10717,230;    5,760;    4,150;10711,47000
 493,42;10866,210;    6,700;    4,150;10859,51000
 493,76;11163,170;    0,230;   -0,570;11162,94000
 494,10;11356,210;    3,630;   -1,780;11352,58000
 494,43;11738,100;   -4,120;    3,110;11742,22000
 494,77;11890,380;    1,960;    2,770;11888,42000
 495,11;12271,680;    2,240;   11,140;12269,44000
 495,44;12553,650;    0,910;   -4,530;12552,74000
 495,78;12832,290;   -1,500;    5,470;12833,79000
 496,11;13082,290;   -1,040;   -4,260;13083,33000
 496,45;13453,390;    7,610;    6,110;13445,78000
 496,79;13706,620;    1,000;    2,220;13705,62000
 497,12;14193,220;    8,070;    2,140;14185,15000
 497,46;14456,490;   -3,060;   -2,720;14459,55000
 497,80;14765,470;    3,680;   -1,710;14761,79000
 498,13;15156,320;   -0,900;    2,630;15157,22000
 498,47;15457,950;    3,830;   -0,940;15454,12000
 498,80;15895,260;   -3,610;    0,300;15898,87000
 499,14;16144,080;   -0,760;    1,520;16144,84000
 499,48;16493,920;   -1,100;    3,640;16495,02000
 499,81;16883,490;    6,440;    3,640;16877,05000
 500,15;17250,770;   -9,790;   -0,380;17260,56000
 500,48;17690,900;    0,230;   -2,000;17690,67000
 500,82;17918,040;    3,250;    3,040;17914,79000
 501,16;18349,570;    3,670;    6,580;18345,90000
 501,49;18746,870;   -4,950;    2,880;18751,82000
 501,83;19197,890;   -4,120;    5,120;19202,01000
 502,16;19421,900;    4,210;   -2,370;19417,69000
 502,50;20070,070;   -5,910;    1,260;20075,98000
 502,84;20286,520;   -1,330;    0,050;20287,85000
 503,17;20702,670;   -0,320;   -4,780;20702,99000
 503,51;21029,280;    0,600;    5,590;21028,68000
 503,84;21410,340;    4,400;    3,500;21405,94000
 504,18;21785,000;    0,340;   -5,340;21784,66000
 504,52;22164,750;    6,290;    9,360;22158,46000
 504,85;22578,870;    3,210;    5,700;22575,66000
 505,19;22835,470;   -1,740;    6,070;22837,21000
 505,52;23448,310;   -6,110;    1,120;23454,42000
 505,86;23710,280;    0,650;    0,140;23709,63000
 506,20;24212,700;   -0,470;   -6,900;24213,17000
 506,53;24445,720;    6,060;   -0,650;24439,66000
 506,87;25125,260;   -0,030;    6,970;25125,29000
 507,20;25132,070;    5,790;    4,280;25126,28000
 507,54;25487,940;    3,310;    1,650;25484,63000
 507,88;25969,520;    3,230;    3,780;25966,29000
 508,21;26219,620;   -4,050;   -2,490;26223,67000
 508,55;26520,160;   -0,280;    7,120;26520,44000
 508,88;27239,800;    0,760;   -2,090;27239,04000
 509,22;27461,010;   -8,870;    6,200;27469,88000
 509,55;28179,660;   24,660;   -0,800;28155,00000
 509,89;28101,280;   67,040;   -1,440;28034,24000
 510,23;28767,680;   -0,830;   -2,140;28768,51000
 510,56;29131,410;   -2,090;    3,250;29133,50000
 510,90;29415,340;   -1,730;    3,340;29417,07000
 511,23;29548,540;    2,630;    2,710;29545,91000
 511,57;30060,200;   -4,400;   -1,650;30064,60000
 511,90;30651,110;    6,650;    0,050;30644,46000
 512,24;30691,980;   -3,870;   -2,950;30695,85000
 512,58;31332,470;    3,440;    8,290;31329,03000
 512,91;31290,750;   -1,380;    0,630;31292,13000
 513,25;31816,830;    5,860;    0,020;31810,97000
 513,58;32201,060;   -3,230;    2,880;32204,29000
 513,92;32414,190;    7,330;    0,770;32406,86000
 514,25;32915,030;   -1,740;    0,820;32916,77000
 514,59;33102,590;   -0,760;    2,600;33103,35000
 514,93;33283,570;    1,790;    1,530;33281,78000
 515,26;33878,920;    8,600;    7,590;33870,32000
 515,60;33930,980;   -0,340;   -2,580;33931,32000
 515,93;34254,040;    3,470;   -1,230;34250,57000
 516,27;34491,650;   -3,410;    4,840;34495,06000
 516,60;35024,790;    4,800;    2,850;35019,99000
 516,94;34884,730;    2,880;   -2,570;34881,85000
 517,27;35468,180;    9,500;    4,570;35458,68000
 517,61;35393,580;    2,260;    5,270;35391,32000
 517,95;35720,050;   -3,350;    2,170;35723,40000
 518,28;35711,650;   -3,190;    5,290;35714,84000
 518,62;36009,600;    3,680;    1,670;36005,92000
 518,95;36322,160;   -3,630;    1,190;36325,79000
 519,29;36631,410;    2,360;    1,710;36629,05000
 519,62;36609,690;   -1,340;    2,510;36611,03000
 519,96;37102,850;    8,140;    3,920;37094,71000
 520,29;36663,010;    0,950;   -0,430;36662,06000
 520,63;37073,310;   -1,670;   -0,150;37074,98000
 520,96;37186,860;    1,790;    3,620;37185,07000
 521,30;37561,320;    7,650;    1,200;37553,67000
 521,64;37742,290;    1,180;    3,890;37741,11000
 521,97;37753,170;   -1,090;    6,380;37754,26000
 522,31;37887,710;   -5,700;   -7,270;37893,41000
 522,64;37809,410;   10,020;   -5,510;37799,39000
 522,98;38461,220;   -2,080;    1,290;38463,30000
 523,31;37918,970;    1,080;    1,900;37917,89000
 523,65;38486,860;   -1,510;   -6,200;38488,37000
 523,98;38472,890;   -0,100;    5,970;38472,99000
 524,32;38373,440;    3,310;    1,030;38370,13000
 524,65;38888,270;    9,930;    1,710;38878,34000
 524,99;38608,880;    1,960;   -2,690;38606,92000
 525,32;38873,660;    3,530;    0,540;38870,13000
 525,66;38943,240;   -0,890;    0,430;38944,13000
 525,99;38888,440;   -3,340;    4,440;38891,78000
 526,33;39109,720;   -0,640;   -3,490;39110,36000
 526,66;39411,600;    0,310;    2,600;39411,29000
 527,00;39052,800;    2,220;    3,270;39050,58000
 527,34;39399,890;    8,290;    5,670;39391,60000
 527,67;39392,190;   -1,710;   -0,570;39393,90000
 528,01;39663,400;    7,730;    0,220;39655,67000
 528,34;39531,600;    1,650;    1,970;39529,95000
 528,68;39806,210;   -0,100;    5,830;39806,31000
 529,01;39688,910;    3,290;   -4,490;39685,62000
 529,35;39711,930;    6,480;    3,460;39705,45000
 529,68;39798,220;    1,510;    3,480;39796,71000
 530,02;39893,160;    1,780;    3,200;39891,38000
 530,35;40003,180;    4,710;   -8,440;39998,47000
 530,69;39972,360;    1,740;   29,930;39970,62000
 531,02;40268,360;   -1,730;   56,520;40270,09000
 531,36;40144,350;    1,420;    3,800;40142,93000
 531,69;40184,140;   -6,630;    5,160;40190,77000
 532,03;40531,330;   -0,960;    3,910;40532,29000
 532,36;40373,280;    0,600;    1,970;40372,68000
 532,70;40314,060;    5,580;    1,890;40308,48000
 533,03;40542,040;   -0,740;   -3,110;40542,78000
 533,37;40610,060;    3,940;    4,230;40606,12000
 533,70;40331,650;    5,830;    4,400;40325,82000
 534,04;41076,220;    3,960;    2,450;41072,26000
 534,37;40774,190;    6,940;    2,640;40767,25000
 534,71;40806,890;    3,690;   -1,000;40803,20000
 535,04;40929,060;    0,820;    2,680;40928,24000
 535,38;41075,980;    5,470;    3,230;41070,51000
 535,71;40759,840;    3,140;    0,930;40756,70000
 536,05;41133,920;    3,350;    2,100;41130,57000
 536,38;41366,380;   -1,320;    3,340;41367,70000
 536,72;41157,650;    3,390;    4,090;41154,26000
 537,05;41118,940;   -5,270;    6,640;41124,21000
 537,39;41443,210;    2,310;    3,610;41440,90000
 537,72;41289,080;    7,590;    6,190;41281,49000
 538,06;41501,900;    3,290;    2,570;41498,61000
 538,39;41532,690;   -2,130;    2,250;41534,82000
 538,73;41767,530;    3,870;   -0,040;41763,66000
 539,06;41739,290;    2,110;   -0,200;41737,18000
 539,40;41875,910;   11,690;    5,550;41864,22000
 539,73;41551,480;   -6,580;    3,140;41558,06000
 540,06;41946,720;    3,170;    6,510;41943,55000
 540,40;41909,320;   -4,720;   -1,330;41914,04000
 540,73;42073,860;    0,220;    2,640;42073,64000
 541,07;41924,060;   -5,970;    1,200;41930,03000
 541,40;42070,380;    0,240;    4,640;42070,14000
 541,74;42438,240;   -2,380;    3,540;42440,62000
 542,07;42264,380;    2,720;   -0,540;42261,66000
 542,41;42388,510;    2,840;    2,540;42385,67000
 542,74;42219,310;    8,810;    6,510;42210,50000
 543,08;42560,000;   -2,110;    2,200;42562,11000
 543,41;42423,620;   -1,170;   -1,260;42424,79000
 543,75;42403,470;   -3,130;   -0,700;42406,60000
 544,08;42557,010;    0,610;   10,220;42556,40000
 544,42;42555,150;    6,180;    0,830;42548,97000
 544,75;42725,250;    6,570;    0,750;42718,68000
 545,09;42993,820;   -0,220;   -1,050;42994,04000
 545,42;43004,900;    1,280;    4,050;43003,62000
 545,75;42830,050;   -3,180;    3,470;42833,23000
 546,09;42669,930;   -0,100;    0,050;42670,03000
 546,42;42911,060;    0,100;    3,700;42910,96000
 546,76;43112,160;    0,720;    3,460;43111,44000
 547,09;42699,620;    4,830;    0,370;42694,79000
 547,43;42928,590;    1,760;    8,850;42926,83000
 547,76;42754,760;    7,270;   -4,470;42747,49000
 548,10;42854,720;    4,120;    1,660;42850,60000
 548,43;42777,690;    0,100;    0,720;42777,59000
 548,76;42832,420;    1,260;   -1,010;42831,16000
 549,10;42956,990;    5,180;   -0,730;42951,81000
 549,43;42989,340;    6,330;    3,840;42983,01000
 549,77;42737,620;   -0,560;   -2,450;42738,18000
 550,10;42724,770;    2,550;    0,310;42722,22000
 550,44;42686,930;   -5,670;   -0,370;42692,60000
 550,77;42781,110;    3,650;    7,640;42777,46000
 551,11;42705,350;   -0,740;    1,220;42706,09000
 551,44;42640,110;    1,000;    2,480;42639,11000
 551,77;42537,100;   -2,410;   -4,760;42539,51000
 552,11;42319,260;    1,740;    5,570;42317,52000
 552,44;42100,880;   -5,010;    4,180;42105,89000
 552,78;42240,690;    2,280;    0,480;42238,41000
 553,11;42026,790;   -6,210;   -2,650;42033,00000
 553,45;41969,850;    4,060;   -1,040;41965,79000
 553,78;41933,750;    8,540;    1,400;41925,21000
 554,12;41628,130;   -0,860;   -2,450;41628,99000
 554,45;42185,620;   -5,150;    1,230;42190,77000
 554,78;41724,670;   11,280;    4,250;41713,39000
 555,12;41896,750;   -4,330;   -2,560;41901,08000
 555,45;41601,400;   -1,270;    8,650;41602,67000
 555,79;41749,770;   -1,960;   -1,140;41751,73000
 556,12;41258,400;   -3,070;    8,360;41261,47000
 556,45;41415,560;    4,100;    2,960;41411,46000
 556,79;41235,270;    1,770;    3,240;41233,50000
 557,12;41129,730;    0,200;    2,570;41129,53000
 557,46;41106,040;    3,270;    8,160;41102,77000
 557,79;41124,240;   -6,280;    3,260;41130,52000
 558,13;40737,090;   -1,190;    8,530;40738,28000
 558,46;40978,570;   -2,810;    0,860;40981,38000
 558,79;40706,700;    1,750;    6,670;40704,95000
 559,13;40680,860;    3,460;   -3,210;40677,40000
 559,46;40334,870;    3,320;   -0,190;40331,55000
 559,80;40342,120;    3,990;    6,490;40338,13000
 560,13;40294,690;   -2,910;    3,400;40297,60000
 560,46;40055,300;    8,510;    6,230;40046,79000
 560,80;39960,390;    0,090;    1,900;39960,30000
 561,13;40185,610;   -0,580;    0,810;40186,19000
 561,47;39501,840;    2,890;    4,320;39498,95000
 561,80;39788,900;   -2,630;    4,960;39791,53000
 562,13;39743,120;   -3,640;    4,430;39746,76000
 562,47;39656,830;    2,270;    1,920;39654,56000
 562,80;39590,200;    4,400;    2,240;39585,80000
 563,14;39297,790;   -3,080;   -1,680;39300,87000
 563,47;39191,470;   -0,380;    2,140;39191,85000
 563,80;39211,010;   -0,830;    2,900;39211,84000
 564,14;38893,460;   -5,930;   -0,740;38899,39000
 564,47;38808,420;    3,410;    3,320;38805,01000
 564,81;38735,340;   -0,930;   10,860;38736,27000
 565,14;38908,820;    1,670;    0,090;38907,15000
 565,47;38660,560;    0,130;   -1,020;38660,43000
 565,81;38597,260;    3,180;    4,490;38594,08000
 566,14;38016,460;    1,550;    2,810;38014,91000
 566,48;38429,080;    5,370;    2,470;38423,71000
 566,81;38437,700;    4,430;    2,530;38433,27000
 567,14;37825,770;   -1,980;    2,130;37827,75000
 567,48;38177,230;    5,810;    0,570;38171,42000
 567,81;37891,980;   -1,230;    0,030;37893,21000
 568,15;37890,930;    3,820;    5,610;37887,11000
 568,48;37669,090;   -5,810;    1,140;37674,90000
 568,81;37598,340;    5,560;    1,110;37592,78000
 569,15;37517,500;    3,480;    1,390;37514,02000
 569,48;37344,630;   -0,800;   -0,360;37345,43000
 569,81;37152,560;    0,180;    1,170;37152,38000
 570,15;37225,220;    7,530;    5,900;37217,69000
 570,48;37101,500;    4,980;    0,820;37096,52000
 570,82;36801,300;   -3,770;    1,040;36805,07000
 571,15;36727,880;    4,170;    6,150;36723,71000
 571,48;36718,370;    5,890;   -5,180;36712,48000
 571,82;36240,940;   -2,250;   -0,550;36243,19000
 572,15;36326,750;    3,240;    2,300;36323,51000
 572,48;36151,430;    3,220;    0,020;36148,21000
 572,82;36129,640;    7,240;   10,180;36122,40000
 573,15;36150,370;    1,450;   -2,640;36148,92000
 573,48;35937,020;    1,040;    0,560;35935,98000
 573,82;35702,210;    5,540;    1,280;35696,67000
 574,15;35706,240;    4,090;    1,840;35702,15000
 574,49;35569,700;    5,910;   -5,490;35563,79000
 574,82;35178,630;    2,600;    2,660;35176,03000
 575,15;35388,650;   -1,200;    0,150;35389,85000
 575,49;35151,780;    6,700;    2,180;35145,08000
 575,82;35145,630;    4,340;   -1,800;35141,29000
 576,15;35113,580;    3,230;   -3,060;35110,35000
 576,49;34887,600;    2,700;   -3,690;34884,90000
 576,82;35191,460;    3,570;    5,280;35187,89000
 577,15;35005,330;    5,940;    4,070;34999,39000
 577,49;34668,160;    2,590;   -4,570;34665,57000
 577,82;34786,180;    0,560;   -8,470;34785,62000
 578,15;34581,660;    4,850;   -2,390;34576,81000
 578,49;34695,330;   -0,380;   -2,140;34695,71000
 578,82;34572,550;   -0,130;   -2,880;34572,68000
 579,15;34256,530;   -0,060;    2,960;34256,59000
 579,49;34528,070;    3,350;    1,650;34524,72000
 579,82;34454,150;   -1,270;   -0,470;34455,42000
 580,15;34053,240;    2,230;    2,570;34051,01000
 580,49;34408,270;    4,210;   -0,190;34404,06000
 580,82;34177,930;    2,640;   -1,000;34175,29000
 581,15;34209,940;   -2,380;   -6,670;34212,32000
 581,49;34030,990;   -3,960;    0,300;34034,95000
 581,82;33967,390;    2,990;    5,260;33964,40000
 582,15;33866,380;    2,380;    5,200;33864,00000
 582,49;33867,400;    2,570;    4,200;33864,83000
 582,82;33762,240;    8,010;   -0,030;33754,23000
 583,15;33603,590;   -7,220;   -2,490;33610,81000
 583,49;33742,310;    1,830;    8,650;33740,48000
 583,82;33661,990;    2,640;    0,780;33659,35000
 584,15;33512,350;    1,050;    7,420;33511,30000
 584,49;33704,540;    1,030;   -3,360;33703,51000
 584,82;33184,540;    4,450;    6,100;33180,09000
 585,15;33379,250;    0,110;    4,700;33379,14000
 585,49;33086,670;    6,990;    7,000;33079,68000
 585,82;32925,640;   -1,110;    3,200;32926,75000
 586,15;32994,010;   -0,230;    3,490;32994,24000
 586,49;32645,200;    5,370;    3,260;32639,83000
 586,82;32899,900;    3,030;    3,970;32896,87000
 587,15;32554,390;    2,900;    2,000;32551,49000
 587,49;32399,970;    4,910;    2,410;32395,06000
 587,82;32470,630;    1,740;    5,070;32468,89000
 588,15;32005,100;   -1,950;   -2,550;32007,05000
 588,49;32022,330;    3,050;    3,970;32019,28000
 588,82;32033,280;    5,530;    3,970;32027,75000
 589,15;32278,350;   -5,930;    2,130;32284,28000
 589,48;31596,920;    3,720;   -4,430;31593,20000
 589,82;31601,500;   -1,470;   -4,310;31602,97000
 590,15;31389,030;    1,480;    0,070;31387,55000
 590,48;31301,920;    8,120;    6,020;31293,80000
 590,82;31092,710;   -0,860;    6,910;31093,57000
 591,15;30876,460;    1,670;    5,820;30874,79000
 591,48;30991,460;    6,630;    5,330;30984,83000
 591,82;30721,960;   -3,080;   -4,460;30725,04000
 592,15;30731,290;    3,470;    4,680;30727,82000
 592,48;30376,250;   -4,860;    0,670;30381,11000
 592,81;30329,990;   -0,740;   -1,340;30330,73000
 593,15;30237,050;   -1,020;    4,290;30238,07000
 593,48;30052,440;    9,860;    6,390;30042,58000
 593,81;30185,420;  -15,220;    0,930;30200,64000
 594,15;29738,800;   31,720;    1,230;29707,08000
 594,48;29828,710;   62,290;    1,520;29766,42000
 594,81;29281,230;   -0,080;    2,870;29281,31000
 595,15;29462,260;   -2,310;   -0,890;29464,57000
 595,48;29187,430;    9,250;    0,350;29178,18000
 595,81;29217,870;   -0,460;    1,370;29218,33000
 596,14;28784,110;    4,810;    5,680;28779,30000
 596,48;28759,040;   -5,480;    4,810;28764,52000
 596,81;28470,910;    4,050;    9,560;28466,86000
 597,14;28584,770;    3,020;    3,810;28581,75000
 597,47;28266,020;   -1,310;    5,660;28267,33000
 597,81;28147,190;    2,300;    4,740;28144,89000
 598,14;27862,790;    4,830;    3,320;27857,96000
 598,47;27682,860;    0,490;   -0,680;27682,37000
 598,81;27739,240;    6,930;    8,210;27732,31000
 599,14;27375,380;   -0,420;    2,020;27375,80000
 599,47;27265,730;   -2,620;    3,760;27268,35000
 599,80;27169,500;   -5,190;    6,230;27174,69000
 600,14;26961,910;    3,560;   -6,300;26958,35000
 600,47;26811,090;   -0,410;    0,600;26811,50000
 600,80;26534,250;   -0,200;   -3,960;26534,45000
 601,13;26481,280;    1,740;    6,140;26479,54000
 601,47;26184,890;    0,700;    0,460;26184,19000
 601,80;26071,540;    3,170;   -1,900;26068,37000
 602,13;26032,830;   -2,920;   -8,200;26035,75000
 602,47;25735,230;    0,570;   27,790;25734,66000
 602,80;25534,680;    3,380;   63,270;25531,30000
 603,13;25251,330;   -4,400;    4,230;25255,73000
 603,46;25172,950;    1,520;    2,890;25171,43000
 603,80;25005,480;   -7,330;   -2,950;25012,81000
 604,13;24707,600;    4,770;    2,570;24702,83000
 604,46;24656,050;   -4,590;    0,400;24660,64000
 604,79;24555,620;    8,810;    1,990;24546,81000
 605,13;24306,990;    1,970;    7,270;24305,02000
 605,46;24183,160;    4,230;   -5,750;24178,93000
 605,79;23870,090;   -2,540;   -0,890;23872,63000
 606,12;23620,730;    1,730;    4,530;23619,00000
 606,46;23550,180;    3,210;    4,550;23546,97000
 606,79;23141,410;    2,490;    3,780;23138,92000
 607,12;23125,630;    4,020;   -2,070;23121,61000
 607,45;22917,650;    2,760;    6,620;22914,89000
 607,79;22602,850;   -2,930;    5,050;22605,78000
 608,12;22530,490;    5,730;    2,650;22524,76000
 608,45;22030,520;   -0,020;    3,650;22030,54000
 608,78;21781,060;    6,110;    5,020;21774,95000
 609,11;21641,500;    3,590;    0,370;21637,91000
 609,45;21425,250;    0,060;    1,040;21425,19000
 609,78;21013,930;    0,870;    1,760;21013,06000
 610,11;20769,700;    0,690;    5,670;20769,01000
 610,44;20585,850;    4,780;    0,160;20581,07000
 610,78;20070,340;    6,770;    0,420;20063,57000
 611,11;19888,310;   -0,390;    6,070;19888,70000
 611,44;19584,810;    3,230;    3,780;19581,58000
 611,77;19242,170;   -0,510;    9,420;19242,68000
 612,11;18855,740;    7,840;    1,400;18847,90000
 612,44;18562,900;   -5,920;   -1,570;18568,82000
 612,77;18445,530;    1,040;   -0,450;18444,49000
 613,10;18124,280;    1,490;    2,290;18122,79000
 613,43;17891,740;   -2,720;    3,040;17894,46000
 613,77;17600,230;   10,760;   -1,690;17589,47000
 614,10;17528,020;    6,930;    2,630;17521,09000
 614,43;17205,130;   -3,550;    4,250;17208,68000
 614,76;17147,150;    0,410;   -1,030;17146,74000
 615,10;17093,130;   -3,180;    0,940;17096,31000
 615,43;16984,360;    3,810;   11,400;16980,55000
 615,76;16963,220;   -1,100;    3,040;16964,32000
 616,09;16869,730;   -2,020;    7,050;16871,75000
 616,42;16763,940;   -2,200;    3,430;16766,14000
 616,76;16246,990;    0,780;   -4,530;16246,21000
 617,09;16272,680;    4,780;    3,030;16267,90000
 617,42;15935,120;    6,240;   -3,360;15928,88000
 617,75;15777,830;   -0,120;   -5,410;15777,95000
 618,08;16111,030;    0,100;    0,440;16110,93000
 618,42;16340,160;    5,740;    2,150;16334,42000
 618,75;16439,620;   -0,470;   -0,500;16440,09000
 619,08;16754,820;    2,320;    1,430;16752,50000
 619,41;16414,190;    5,090;   -4,170;16409,10000
 619,74;16437,900;    0,010;    5,500;16437,89000
 620,08;16273,340;    1,830;   12,770;16271,51000
 620,41;16357,170;   -0,190;   -5,400;16357,36000
 620,74;16323,360;    1,680;    4,450;16321,68000
 621,07;16128,990;   -1,320;    0,870;16130,31000
 621,40;15906,500;   -2,100;    1,220;15908,60000
 621,74;15920,420;    7,730;   -0,060;15912,69000
 622,07;15731,520;    1,290;    5,000;15730,23000
 622,40;15539,840;    9,670;    3,220;15530,17000
 622,73;15564,250;    2,260;    5,570;15561,99000
 623,06;15264,360;   -2,830;   -2,860;15267,19000
 623,39;15163,180;    2,000;    5,390;15161,18000
 623,73;14998,310;    0,710;    0,120;14997,60000
 624,06;14817,850;    2,540;    1,630;14815,31000
 624,39;14814,540;   -1,360;    4,010;14815,90000
 624,72;14577,580;    6,220;   10,210;14571,36000
 625,05;14494,150;   -0,080;    3,570;14494,23000
 625,39;14316,630;   -3,380;   -1,650;14320,01000
 625,72;14229,450;   -3,160;    7,260;14232,61000
 626,05;14042,710;    0,990;    2,990;14041,72000
 626,38;14006,420;   -2,560;    7,380;14008,98000
 626,71;13815,110;    5,850;   -5,440;13809,26000
 627,04;13736,070;   -0,620;    2,190;13736,69000
 627,38;13677,520;    4,870;    3,780;13672,65000
 627,71;13489,350;   -3,620;   -3,000;13492,97000
 628,04;13330,960;    1,470;    0,330;13329,49000
 628,37;13311,000;    1,610;    8,330;13309,39000
 628,70;13073,670;    0,010;    2,340;13073,66000
 629,03;12929,270;   -2,410;    0,700;12931,68000
 629,37;12937,830;    0,610;    1,090;12937,22000
 629,70;12700,550;    5,110;    1,190;12695,44000
 630,03;12672,590;    1,690;    2,910;12670,90000
 630,36;12556,570;   -1,100;    0,930;12557,67000
 630,69;12366,860;   -0,050;    4,610;12366,91000
 631,02;12278,150;   -3,690;   -0,060;12281,84000
 631,36;12214,670;    8,630;   -1,810;12206,04000
 631,69;12127,470;   -3,580;    0,190;12131,05000
 632,02;11969,930;    0,630;    2,650;11969,30000
 632,35;11883,990;    3,040;    4,990;11880,95000
 632,68;11745,430;    6,380;    1,420;11739,05000
 633,01;11613,080;   -2,600;   -0,120;11615,68000
 633,34;11538,840;    6,710;   -7,040;11532,13000
 633,68;11434,940;    1,320;   -2,400;11433,62000
 634,01;11372,840;    3,150;    2,460;11369,69000
 634,34;11246,750;    2,070;    1,250;11244,68000
 634,67;11178,540;   -0,410;    4,360;11178,95000
 635,00;11041,530;    1,870;   -0,270;11039,66000
 635,33;10909,350;    0,210;   -4,520;10909,14000
 635,66;10856,550;    9,480;    1,600;10847,07000
 636,00;10703,140;   -3,170;    1,520;10706,31000
 636,33;10610,360;    0,960;    2,600;10609,40000
 636,66;10564,490;    3,480;    2,100;10561,01000
 636,99;10390,030;    3,620;    5,180;10386,41000
 637,32;10336,240;    7,040;    3,410;10329,20000
 637,65;10249,250;   -2,110;   -0,530;10251,36000
 637,98;10107,030;    0,920;    0,300;10106,11000
 638,32;10059,270;   -7,900;    2,560;10067,17000
 638,65; 9985,160;    1,310;    7,760;9983,85000
 638,98; 9864,380;   -3,950;   -2,870;9868,33000
 639,31; 9769,820;    5,000;   -4,230;9764,82000
 639,64; 9633,930;    0,630;    0,830;9633,30000
 639,97; 9557,820;    2,200;    5,530;9555,62000
 640,30; 9450,680;   -0,610;   -2,140;9451,29000
 640,63; 9375,090;    2,210;    1,570;9372,88000
 640,97; 9313,340;   -1,820;    1,110;9315,16000
 641,30; 9157,380;    4,830;    7,220;9152,55000
 641,63; 9134,300;   -1,340;    2,240;9135,64000
 641,96; 9014,020;    0,970;   -2,020;9013,05000
 642,29; 8983,060;   -1,840;    5,920;8984,90000
 642,62; 8796,080;    5,800;    1,470;8790,28000
 642,95; 8737,000;   -3,070;    1,970;8740,07000
 643,28; 8708,470;    6,360;    4,550;8702,11000
 643,61; 8556,480;   -2,170;   -0,630;8558,65000
 643,95; 8524,140;    5,780;   -2,100;8518,36000
 644,28; 8425,920;    0,290;    4,670;8425,63000
 644,61; 8290,380;   -4,040;    2,590;8294,42000
 644,94; 8207,430;   -3,490;    2,720;8210,92000
 645,27; 8153,060;    2,660;   -4,700;8150,40000
 645,60; 8054,160;    2,020;    7,200;8052,14000
 645,93; 8004,710;    3,420;   -3,130;8001,29000
 646,26; 7974,840;    0,070;   -1,160;7974,77000
 646,59; 7829,950;    2,480;    8,770;7827,47000
 646,92; 7815,780;    1,980;   -0,800;7813,80000
 647,26; 7730,720;    7,930;   -0,400;7722,79000
 647,59; 7643,370;   -1,230;    2,300;7644,60000
 647,92; 7592,040;    1,660;    1,320;7590,38000
 648,25; 7434,290;    0,600;   -0,750;7433,69000
 648,58; 7411,240;   -3,720;    7,320;7414,96000
 648,91; 7325,880;    5,650;   -1,540;7320,23000
 649,24; 7243,260;    0,350;    1,190;7242,91000
 649,57; 7216,710;   -2,510;    3,270;7219,22000
 649,90; 7133,920;    2,060;   10,310;7131,86000
 650,23; 7082,390;    0,520;    4,800;7081,87000
 650,56; 6953,390;    6,180;    1,150;6947,21000
 650,90; 6955,750;   -3,230;   -4,310;6958,98000
 651,23; 6935,920;    1,950;    1,350;6933,97000
 651,56; 6878,680;   -2,410;    3,210;6881,09000
 651,89; 6837,040;    2,690;    5,780;6834,35000
 652,22; 6810,920;    6,090;   -3,950;6804,83000
 652,55; 6771,840;    3,230;   10,250;6768,61000
 652,88; 6730,410;   -1,160;   -0,760;6731,57000
 653,21; 6652,520;    3,490;    6,810;6649,03000
 653,54; 6655,390;   -1,870;   -5,450;6657,26000
 653,87; 6629,130;   -1,020;   -1,370;6630,15000
 654,20; 6640,780;    0,740;    8,700;6640,04000
 654,53; 6555,300;    3,260;    1,880;6552,04000
 654,86; 6548,010;   -3,690;   -0,280;6551,70000
 655,20; 6491,200;    2,680;    2,020;6488,52000
 655,53; 6449,720;   -3,850;    0,940;6453,57000
 655,86; 6369,150;    2,330;    5,800;6366,82000
 656,19; 6359,370;    1,870;   -4,610;6357,50000
 656,52; 6247,430;    3,330;    2,500;6244,10000
 656,85; 6165,940;    1,930;   -3,520;6164,01000
 657,18; 6121,820;    1,130;    2,350;6120,69000
 657,51; 6005,380;    0,510;    1,360;6004,87000
 657,84; 5912,740;    0,770;    3,900;5911,97000
 658,17; 5831,800;    0,110;    2,210;5831,69000
 658,50; 5782,990;    8,450;    0,070;5774,54000
 658,83; 5727,940;    5,730;   -1,990;5722,21000
 659,16; 5712,110;    1,100;    2,010;5711,01000
 659,49; 5654,610;   -3,240;    3,010;5657,85000
 659,82; 5581,540;   -6,500;    4,520;5588,04000
 660,15; 5419,680;   -2,570;   -0,950;5422,25000
 660,48; 5204,540;   12,260;   -2,180;5192,28000
 660,81; 5046,900;    3,700;    0,810;5043,20000
 661,15; 4864,740;    1,880;    4,170;4862,86000
 661,48; 4810,530;   -2,570;   -3,960;4813,10000
 661,81; 4783,750;    7,830;    9,950;4775,92000
 662,14; 4707,830;   -6,310;   -0,980;4714,14000
 662,47; 4602,600;    2,400;    1,520;4600,20000
 662,80; 4551,850;    2,950;    3,350;4548,90000
 663,13; 4479,040;    8,240;    7,380;4470,80000
 663,46; 4420,000;    1,970;    2,220;4418,03000
 663,79; 4359,310;    7,040;    6,740;4352,27000
 664,12; 4295,740;    3,980;    0,870;4291,76000
 664,45; 4182,730;    2,160;   -0,860;4180,57000
 664,78; 4130,580;    2,640;   -2,110;4127,94000
 665,11; 4132,680;   -0,820;    3,620;4133,50000
 665,44; 4051,910;    2,540;    2,350;4049,37000
 665,77; 3967,250;    2,360;    5,630;3964,89000
 666,10; 3956,130;    0,540;    5,000;3955,59000
 666,43; 3883,930;    2,990;   -0,720;3880,94000
 666,76; 3869,890;    8,190;    1,910;3861,70000
 667,09; 3799,100;    5,030;    0,790;3794,07000
 667,42; 3766,060;   -2,330;    0,390;3768,39000
 667,75; 3713,510;   -3,500;   -0,330;3717,01000
 668,08; 3697,910;    5,540;    7,960;3692,37000
 668,41; 3657,120;   -0,930;    0,800;3658,05000
 668,74; 3625,720;    1,770;    1,150;3623,95000
 669,07; 3584,930;    1,110;    1,860;3583,82000
 669,40; 3496,100;   -2,230;    2,380;3498,33000
 669,73; 3506,210;   -0,310;    4,600;3506,52000
 670,06; 3470,450;    2,520;   -5,490;3467,93000
 670,39; 3415,690;    1,870;   -2,420;3413,82000
 670,72; 3424,610;    2,730;    1,250;3421,88000
 671,05; 3339,940;   -0,950;   -0,450;3340,89000
 671,38; 3355,610;    2,140;    6,620;3353,47000
 671,71; 3300,290;    1,570;    4,900;3298,72000
 672,04; 3258,920;   -8,840;   -2,120;3267,76000
 672,37; 3211,200;   -3,640;    4,390;3214,84000
 672,70; 3178,950;   -8,920;    4,480;3187,87000
 673,03; 3153,730;    8,560;    6,180;3145,17000
 673,36; 3110,820;   -5,660;   -6,710;3116,48000
 673,69; 3050,080;   -1,090;   29,090;3051,17000
 674,02; 3048,610;   -7,050;   55,770;3055,66000
 674,35; 2969,530;    4,210;    9,490;2965,32000
 674,68; 2926,180;    0,900;    3,540;2925,28000
 675,01; 2878,360;    2,610;    2,080;2875,75000
 675,34; 2860,140;   -1,230;   -2,220;2861,37000
 675,67; 2815,840;    6,660;    2,970;2809,18000
 676,00; 2769,320;    3,910;   -1,250;2765,41000
 676,33; 2713,920;    5,390;   -6,420;2708,53000
 676,66; 2681,830;    0,020;   -0,150;2681,81000
 676,99; 2651,810;    4,320;    7,890;2647,49000
 677,32; 2604,950;    1,970;   -1,880;2602,98000
 677,65; 2568,710;   -5,180;   -4,020;2573,89000
 677,98; 2556,290;   29,960;    3,480;2526,33000
 678,31; 2573,310;   70,790;    6,580;2502,52000
 678,64; 2460,250;    5,390;   -4,210;2454,86000
 678,97; 2432,560;    5,560;    2,890;2427,00000
 679,30; 2390,290;    3,950;   -0,040;2386,34000
 679,63; 2364,530;    7,580;    5,790;2356,95000
 679,96; 2364,410;   -4,170;   -1,410;2368,58000
 680,29; 2303,890;   -0,380;    1,260;2304,27000
 680,62; 2295,170;   -1,020;    5,810;2296,19000
 680,95; 2247,970;   -1,170;   -0,190;2249,14000
 681,28; 2219,670;    0,970;   -2,040;2218,70000
 681,61; 2192,150;    3,750;   -1,620;2188,40000
 681,94; 2174,110;   -1,150;    0,000;2175,26000
 682,27; 2146,230;    4,440;    0,170;2141,79000
 682,60; 2131,540;    4,140;    4,920;2127,40000
 682,93; 2070,600;    3,540;    3,030;2067,06000
 683,26; 2058,590;    5,180;    2,380;2053,41000
 683,59; 2059,920;    2,360;   -0,460;2057,56000
 683,92; 2017,440;   -5,560;    0,570;2023,00000
 684,24; 1971,990;   -6,010;    7,000;1978,00000
 684,57; 1976,460;    1,200;    3,390;1975,26000
 684,90; 1924,620;    7,180;    6,430;1917,44000
 685,23; 1902,630;   -1,320;   -2,620;1903,95000
 685,56; 1878,080;    0,120;   -1,780;1877,96000
 685,89; 1856,210;   -3,610;    1,720;1859,82000
 686,22; 1844,070;    5,120;    4,030;1838,95000
 686,55; 1785,250;    1,020;    0,730;1784,23000
 686,88; 1779,500;    6,490;   11,380;1773,01000
 687,21; 1759,020;   -3,590;   -0,430;1762,61000
 687,54; 1719,040;    1,350;    8,200;1717,69000
 687,87; 1708,670;   -1,820;    4,250;1710,49000
 688,20; 1685,600;    0,800;    2,520;1684,80000
 688,53; 1641,650;   -1,330;    5,130;1642,98000
 688,86; 1628,280;    5,830;    3,570;1622,45000
 689,19; 1600,530;   -4,980;   -0,020;1605,51000
 689,52; 1584,000;    6,310;    5,530;1577,69000
 689,85; 1573,840;    5,250;   -1,290;1568,59000
 690,17; 1549,970;   -0,530;    2,570;1550,50000
 690,50; 1503,110;    4,360;    2,660;1498,75000
 690,83; 1483,180;    5,120;    5,740;1478,06000
 691,16; 1450,370;   -0,400;    3,030;1450,77000
 691,49; 1460,260;    1,290;    5,260;1458,97000
 691,82; 1429,290;    1,260;   -4,120;1428,03000
 692,15; 1398,240;    6,040;    7,820;1392,20000
 692,48; 1385,710;   -2,510;    5,570;1388,22000
 692,81; 1378,100;    0,080;    4,270;1378,02000
 693,14; 1352,360;    3,950;    4,640;1348,41000
 693,47; 1324,340;    1,840;   -1,070;1322,50000
 693,80; 1323,740;    1,220;   -2,960;1322,52000
 694,13; 1297,270;    3,020;    5,080;1294,25000
 694,46; 1275,040;    2,970;    0,310;1272,07000
 694,78; 1249,550;    4,530;    0,650;1245,02000
 695,11; 1240,980;   -4,290;   -4,040;1245,27000
 695,44; 1205,900;    0,090;    5,590;1205,81000
 695,77; 1209,720;   -0,300;    0,000;1210,02000
 696,10; 1187,870;   -2,510;    3,060;1190,38000
 696,43; 1164,780;   -3,900;    2,670;1168,68000
 696,76; 1154,150;    2,460;    4,400;1151,69000
 697,09; 1149,470;    7,500;    0,650;1141,97000
 697,42; 1116,220;    8,150;    2,390;1108,07000
 697,75; 1109,760;    5,510;   -8,840;1104,25000
 698,08; 1100,260;    0,590;    5,130;1099,67000
 698,40; 1079,630;   -5,730;    2,210;1085,36000
 698,73; 1074,290;   11,130;    7,900;1063,16000
 699,06; 1056,440;   -4,620;    1,350;1061,06000
 699,39; 1028,490;   -0,300;   -1,150;1028,79000
 699,72; 1020,600;    0,100;   -1,240;1020,50000
 700,05; 1012,450;   -0,120;    2,270;1012,57000
 700,38;  999,010;   -1,750;    6,910;1000,76000
 700,71;  965,830;    1,090;    4,100;964,74000
 701,04;  966,490;   -3,180;   -1,360;969,67000
 701,36;  953,550;   -2,910;    6,320;956,46000
 701,69;  934,230;    3,610;    3,590;930,62000
 702,02;  921,390;   -0,550;   -2,490;921,94000
 702,35;  917,060;    7,950;   -5,070;909,11000
 702,68;  904,680;    3,200;    1,660;901,48000
 703,01;  901,680;   -0,730;    2,080;902,41000
 703,34;  873,170;    6,720;    0,800;866,45000
 703,67;  867,670;    0,730;    1,750;866,94000
 704,00;  849,350;   10,320;    6,960;839,03000
 704,32;  841,290;   -4,570;   -1,420;845,86000
 704,65;  831,680;    4,910;    6,280;826,77000
 704,98;  826,800;    0,250;    1,350;826,55000
 705,31;  804,290;   -0,250;    1,580;804,54000
 705,64;  797,920;    2,840;    1,270;795,08000
 705,97;  782,550;    2,640;    4,820;779,91000
 706,30;  774,730;   -7,050;   -1,790;781,78000
 706,63;  755,960;   -5,130;    6,080;761,09000
 706,95;  770,800;    0,370;   -2,710;770,43000
 707,28;  753,970;    0,520;    7,860;753,45000
 707,61;  733,250;    1,570;    1,370;731,68000
 707,94;  719,730;    1,310;   10,000;718,42000
 708,27;  717,610;    0,720;   -1,360;716,89000
 708,60;  711,580;   -1,480;   -2,070;713,06000
 708,93;  696,490;   -0,760;    2,700;697,25000
 709,25;  679,920;    0,990;    6,350;678,93000
 709,58;  682,340;    1,840;    3,760;680,50000
 709,91;  672,590;    2,070;    5,090;670,52000
 710,24;  665,000;    2,840;    3,920;662,16000
 710,57;  661,830;    5,650;    2,830;656,18000
 710,90;  653,380;    1,610;    3,620;651,77000
 711,23;  639,370;    2,810;    8,040;636,56000
 711,55;  638,110;    1,850;   -0,150;636,26000
 711,88;  610,270;    3,580;    1,210;606,69000
 712,21;  620,600;    0,490;   -3,440;620,11000
 712,54;  615,040;   -1,240;   -0,220;616,28000
 712,87;  597,690;   -3,350;    9,900;601,04000
 713,20;  586,250;   -2,370;    5,450;588,62000
 713,52;  588,670;    1,660;   -3,240;587,01000
 713,85;  579,300;    6,190;    5,850;573,11000
 714,18;  567,600;   -3,290;    3,060;570,89000
 714,51;  566,700;    0,850;    3,810;565,85000
 714,84;  552,500;   -1,200;    1,920;553,70000
 715,17;  537,150;    1,340;    8,430;535,81000
 715,50;  537,190;   -0,540;    3,010;537,73000
 715,82;  534,450;   -2,450;    5,880;536,90000
 716,15;  524,690;   -5,470;   -4,590;530,16000
 716,48;  513,050;    0,330;    3,130;512,72000
 716,81;  507,250;   -0,320;   -5,980;507,57000
 717,14;  508,620;   -0,870;    0,570;509,49000
 717,47;  502,170;    1,010;   -0,180;501,16000
 717,79;  490,850;    5,310;    8,090;485,54000
 718,12;  479,800;    0,600;    1,360;479,20000
 718,45;  465,730;    5,210;    3,060;460,52000
 718,78;  473,110;   -5,020;    1,190;478,13000
 719,11;  461,990;    1,990;    2,810;460,00000
 719,43;  450,660;    3,240;    1,390;447,42000
 719,76;  446,850;   -0,610;    4,150;447,46000
 720,09;  442,030;    0,750;    4,260;441,28000
 720,42;  447,850;   -3,340;    4,350;451,19000
 720,75;  425,420;   -3,700;    3,110;429,12000
 721,08;  434,650;    6,300;    1,510;428,35000
 721,40;  414,580;  -10,020;    3,980;424,60000
 721,73;  413,290;    2,450;   -1,970;410,84000
 722,06;  404,190;   -0,530;   -2,640;404,72000
 722,39;  397,350;    0,730;    7,670;396,62000
 722,72;  395,200;   -0,050;   -3,930;395,25000
 723,04;  396,970;    0,190;    1,320;396,78000
 723,37;  375,090;   -0,730;    3,070;375,82000
 723,70;  386,720;    7,970;   -0,900;378,75000
 724,03;  378,410;   -1,030;   -6,630;379,44000
 724,36;  375,070;    9,140;    3,020;365,93000
 724,68;  364,630;    2,380;   -1,560;362,25000
 725,01;  360,660;    2,210;    1,850;358,45000
 725,34;  361,030;   -2,190;   -0,960;363,22000
 725,67;  350,660;    7,620;    2,480;343,04000
 726,00;  353,130;   -0,470;    7,750;353,60000
 726,32;  342,630;   -0,130;    3,050;342,76000
 726,65;  338,240;   -5,230;   -0,760;343,47000
 726,98;  333,460;   -7,830;    3,880;341,29000
 727,31;  328,930;   -1,740;    0,160;330,67000
 727,63;  328,270;    6,380;    8,020;321,89000
 727,96;  330,540;   -0,750;    3,610;331,29000
 728,29;  314,340;   -3,650;   -0,610;317,99000
 728,62;  317,940;   -4,440;    1,180;322,38000
 728,95;  302,030;    6,170;   -0,820;295,86000
 729,27;  301,710;    2,710;    7,960;299,00000
 729,60;  301,390;    5,250;   -1,710;296,14000
 729,93;  292,940;    0,460;   -4,110;292,48000
 730,26;  292,860;    3,060;    8,560;289,80000
 730,58;  291,030;   -0,440;   -1,830;291,47000
 730,91;  285,980;    4,520;    4,510;281,46000
 731,24;  275,850;   -3,580;    1,140;279,43000
 731,57;  276,040;    6,210;    3,090;269,83000
 731,90;  277,020;   -5,150;   -6,190;282,17000
 732,22;  268,290;    1,520;    6,800;266,77000
 732,55;  263,890;    3,330;    3,110;260,56000
 732,88;  258,350;   -0,120;    0,740;258,47000
 733,21;  255,300;    2,360;   10,850;252,94000
 733,53;  253,280;    1,760;    0,450;251,52000
 733,86;  252,270;    6,850;    3,730;245,42000
 734,19;  243,370;   -1,380;    3,450;244,75000
 734,52;  243,910;    0,370;    1,540;243,54000
 734,84;  234,150;    9,630;    1,440;224,52000
 735,17;  239,050;   -3,660;   -1,320;242,71000
 735,50;  230,250;    3,350;   -0,850;226,90000
 735,83;  227,780;   -1,620;   -1,650;229,40000
 736,15;  230,010;    8,560;    2,490;221,45000
 736,48;  219,500;    1,900;    5,340;217,60000
 736,81;  218,370;    3,970;    1,350;214,40000
 737,14;  222,060;   -3,850;   -4,140;225,91000
 737,46;  214,190;    4,690;    4,840;209,50000
 737,79;  208,810;   -3,170;   -2,310;211,98000
 738,12;  213,500;    4,600;    6,120;208,90000
 738,45;  204,260;    2,120;    1,350;202,14000
 738,77;  201,230;    3,770;    4,940;197,46000
 739,10;  202,710;    0,770;   -0,690;201,94000
 739,43;  188,260;    4,580;   -0,540;183,68000
 739,76;  193,280;   -1,580;    1,650;194,86000
 740,08;  183,790;    3,010;    0,290;180,78000
 740,41;  185,500;   -3,200;    0,300;188,70000
 740,74;  177,470;    4,510;    3,160;172,96000
 741,07;  183,870;   -1,770;    0,280;185,64000
 741,39;  179,050;   -3,680;    5,360;182,73000
 741,72;  184,200;    0,610;   -2,020;183,59000
 742,05;  175,660;   -3,560;    3,630;179,22000
 742,37;  170,490;    4,280;    0,320;166,21000
 742,70;  175,520;   -6,620;    0,610;182,14000
 743,03;  162,280;   -7,330;   -2,160;169,61000
 743,36;  159,120;    3,940;    7,750;155,18000
 743,68;  159,400;   -3,690;   -6,600;163,09000
 744,01;  148,810;    1,810;   -4,660;147,00000
 744,34;  152,940;    0,090;   35,160;152,85000
 744,67;  155,230;    4,630;   59,020;150,60000
 744,99;  150,550;    4,080;    0,210;146,47000
 745,32;  148,320;    2,170;    3,980;146,15000
 745,65;  148,980;   -0,390;   -0,900;149,37000
 745,97;  148,620;   -2,240;    1,530;150,86000
 746,30;  143,860;    0,810;   -5,220;143,05000
 746,63;  139,560;   -0,060;    6,550;139,62000
 746,96;  137,020;    0,530;    1,040;136,49000
 747,28;  136,540;    1,200;    1,440;135,34000
 747,61;  136,070;   -4,660;    1,610;140,73000
 747,94;  137,170;    2,610;    2,830;134,56000
 748,26;  126,930;    7,580;    0,100;119,35000
 748,59;  125,010;    0,240;    8,660;124,77000
 748,92;  125,940;    1,100;   -3,870;124,84000
 749,24;  116,610;   10,210;    6,190;106,40000
 749,57;  123,050;   -2,800;   -2,390;125,85000
 749,90;  132,220;    3,570;    4,970;128,65000
 750,23;  119,270;   -0,370;   -0,060;119,64000
 750,55;  124,570;    1,340;    2,610;123,23000
 750,88;  116,250;    0,390;    3,380;115,86000
 751,21;  118,630;    5,680;    1,980;112,95000
 751,53;  109,730;   -2,030;    0,920;111,76000
 751,86;  102,030;   -1,000;    6,040;103,03000
 752,19;  109,710;   -1,790;    7,680;111,50000
 752,51;  107,600;    2,120;    6,440;105,48000
 752,84;  105,940;   -4,420;    0,490;110,36000
 753,17;  103,550;    1,960;    0,200;101,59000
 753,49;  105,810;   -4,700;   -3,910;110,51000
 753,82;   98,680;    4,110;    5,610;94,57000
 754,15;  100,650;    1,810;    1,120;98,84000
 754,47;   96,360;    2,290;    9,680;94,07000
 754,80;   93,860;   -3,580;    1,190;97,44000
 755,13;   95,130;    3,000;   -4,170;92,13000
 755,45;   98,600;   -1,440;    1,490;100,04000
 755,78;   91,320;    0,440;    3,250;90,88000
 756,11;   85,100;    0,750;    7,370;84,35000
 756,43;   91,080;   -3,030;    0,310;94,11000
 756,76;   86,710;   -2,500;    2,100;89,21000
 757,09;   83,440;   -1,910;    3,620;85,35000
 757,41;   91,450;    0,300;    4,740;91,15000
 757,74;   80,100;    5,620;    6,360;74,48000
 758,07;   77,480;   -5,000;    4,440;82,48000
 758,39;   80,500;   -2,190;    5,440;82,69000
 758,72;   83,670;   -1,870;    0,920;85,54000
 759,05;   71,240;    2,890;    2,200;68,35000
 759,37;   75,350;    0,450;   -2,890;74,90000
 759,70;   74,010;    1,270;   -2,400;72,74000
 760,03;   81,660;    6,260;    6,060;75,40000
 760,35;   75,020;   -4,870;    6,640;79,89000
 760,68;   63,200;  -12,840;    1,000;76,04000
 761,01;  102,200;   35,090;    6,920;67,11000
 761,33;  128,530;   61,450;    2,090;67,08000
 761,66;   67,350;   -4,830;    2,630;72,18000
 761,99;   66,010;   -2,730;    3,130;68,74000
 762,31;   74,380;    1,470;    1,450;72,91000
 762,64;   64,650;    6,430;    0,760;58,22000
 762,97;   64,120;    0,580;   -0,440;63,54000
 763,29;   69,020;   -2,310;   -0,550;71,33000
 763,62;   65,120;   -1,930;    7,820;67,05000
 763,95;   54,000;   -1,360;    1,340;55,36000
 764,27;   57,140;    1,040;    3,170;56,10000
 764,60;   63,320;    4,170;   -4,100;59,15000
 764,92;   55,830;    6,380;    1,260;49,45000
 765,25;   63,450;   -1,470;    8,770;64,92000
 765,58;   50,950;    0,810;   -0,640;50,14000
 765,90;   61,060;    3,610;    4,990;57,45000
 766,23;   57,560;   -1,870;    4,760;59,43000
 766,56;   54,880;   -0,620;   -3,620;55,50000
 766,88;   50,600;    2,160;    3,820;48,44000
 767,21;   50,030;    2,110;    2,070;47,92000
 767,53;   49,790;    0,000;    0,990;49,79000
 767,86;   50,800;   -0,910;    4,890;51,71000
 768,19;   49,300;   -5,750;    4,780;55,05000
 768,51;   49,560;   -1,020;    3,960;50,58000
 768,84;   48,610;    6,790;    1,170;41,82000
 769,17;   42,040;   -1,620;    4,060;43,66000
 769,49;   51,290;    1,160;   -3,840;50,13000
 769,82;   45,810;    4,240;   -5,320;41,57000
 770,14;   40,450;   -0,350;    3,870;40,80000
 770,47;   44,490;   -6,540;    5,330;51,03000
 770,80;   44,670;    4,880;   -2,120;39,79000
 771,12;   41,830;   -2,780;    3,950;44,61000
 771,45;   38,220;    6,170;    2,340;32,05000
 771,77;   42,850;   -0,300;    7,270;43,15000
 772,10;   35,550;   11,520;   -3,300;24,03000
 772,43;   35,040;    3,930;    2,510;31,11000
 772,75;   38,630;    3,400;   -2,280;35,23000
 773,08;   38,080;   -0,230;   -0,720;38,31000
 773,40;   35,050;    2,360;    0,690;32,69000
 773,73;   43,040;   -2,270;    3,470;45,31000
 774,06;   39,460;    5,150;    1,330;34,31000
 774,38;   32,060;    1,640;    0,760;30,42000
 774,71;   30,090;    2,660;    8,490;27,43000
 775,03;   27,910;   -1,890;    4,040;29,80000
 775,36;   30,510;   -0,240;    1,510;30,75000
 775,69;   35,020;   -0,920;   -2,440;35,94000
 776,01;   31,750;    4,680;    8,540;27,07000
 776,34;   39,330;    2,670;    3,570;36,66000
 776,66;   28,210;    2,000;    1,640;26,21000
 776,99;   31,070;   -1,010;   -1,700;32,08000
 777,32;   31,310;    4,450;    1,210;26,86000
 777,64;   31,110;    6,600;   -2,660;24,51000
 777,97;   27,840;    1,320;    2,580;26,52000
 778,29;   26,310;    1,050;    0,670;25,26000
 778,62;   24,850;    1,930;    0,590;22,92000
 778,94;   23,730;    5,200;   -2,060;18,53000
 779,27;   28,460;    1,260;   -0,810;27,20000
 779,60;   26,650;   -4,900;   -0,800;31,55000
 779,92;   27,640;   -1,520;    5,630;29,16000
 780,25;   29,380;    0,690;    1,370;28,69000
 780,57;   21,230;    2,870;   -1,900;18,36000
 780,90;   28,200;    5,110;   -0,400;23,09000
 781,22;   22,560;   -1,300;    2,550;23,86000
 781,55;   20,440;   -3,740;    1,740;24,18000
 781,88;   26,910;   -3,170;   -6,260;30,08000
 782,20;   24,980;    5,520;   -1,300;19,46000
 782,53;   26,090;    4,000;    3,670;22,09000
 782,85;   28,760;    1,660;   -5,360;27,10000
 783,18;   19,400;    6,750;    2,840;12,65000
 783,50;   16,310;   -1,690;    0,350;18,00000
 783,83;   16,250;    3,880;    0,660;12,37000
 784,15;   22,970;    7,750;    3,330;15,22000
 784,48;   18,820;    2,700;    4,600;16,12000
 784,81;   11,810;   -2,340;   -5,350;14,15000
 785,13;   23,430;    6,530;    0,400;16,90000
 785,46;   18,670;   -0,240;   -0,950;18,91000
 785,78;   21,740;    4,210;    7,470;17,53000
 786,11;   16,400;    5,200;    3,530;11,20000
 786,43;   15,310;    8,670;   10,760; 6,64000
 786,76;   20,190;   -2,170;    2,400;22,36000
 787,08;   19,770;    4,960;    3,910;14,81000
 787,41;   17,590;    4,770;   -0,790;12,82000
 787,74;   16,000;    2,530;    0,400;13,47000
 788,06;   10,990;    5,090;    1,680; 5,90000
 788,39;   13,360;    1,510;    5,840;11,85000
 788,71;   17,040;   -5,570;   -3,830;22,61000
 789,04;   16,370;    0,180;    2,920;16,19000
 789,36;   15,650;    0,520;   -0,020;15,13000
 789,69;   20,150;   -2,320;    3,230;22,47000
 790,01;   16,020;    5,030;   10,890;10,99000
 790,34;   15,860;    8,290;    2,500; 7,57000
 790,66;   10,310;   -0,290;   -2,490;10,60000
 790,99;   12,490;    7,340;    5,580; 5,15000
 791,31;   12,240;   -0,520;    6,140;12,76000
 791,64;   16,970;    2,850;   -4,470;14,12000
 791,96;   13,430;    3,760;    6,380; 9,67000
 792,29;   13,660;    2,860;    5,650;10,80000
 792,61;    7,040;    1,860;    0,020; 5,18000
 792,94;    6,950;    6,930;    5,160; 0,02000
 793,26;    8,560;   -6,890;   -0,200;15,45000
 793,59;    9,540;    3,930;    9,690; 5,61000
 793,92;   20,580;    0,140;    1,540;20,44000
 794,24;    3,250;    3,200;    5,100; 0,05000
 794,57;   11,230;    3,000;   -5,260; 8,23000
 794,89;    4,310;    2,560;   -0,480; 1,75000
 795,22;    7,770;    4,030;    2,220; 3,74000
 795,54;    2,330;    4,620;    7,430;-2,29000
 795,87;   10,190;   -3,300;    0,880;13,49000
 796,19;   -2,680;   -4,730;    6,260; 2,05000
 796,52;    3,380;   -6,650;    5,170;10,03000
 796,84;   12,190;    2,790;    1,760; 9,40000
 797,17;   11,000;   -3,750;   -3,080;14,75000
 797,49;    7,130;    0,170;    0,780; 6,96000
 797,82;    7,890;    1,830;    2,090; 6,06000
 798,14;    5,130;    8,530;    2,030;-3,40000
 798,47;    9,770;   -2,550;    0,490;12,32000
 798,79;    8,080;    0,900;   -0,860; 7,18000
 799,12;    5,710;   -2,020;   -2,310; 7,73000
 799,44;    5,460;    1,200;   -1,110; 4,26000
 799,77;    3,300;   -0,710;   -1,440; 4,01000
 800,09;    0,520;    2,750;   10,240;-2,23000
 800,41;    4,990;   -1,830;   -2,340; 6,82000
 800,74;    1,360;    2,890;    3,450;-1,53000
 801,06;    5,340;    1,590;   -7,190; 3,75000
 801,39;    3,710;    3,330;    2,400; 0,38000
 801,71;   -3,340;   -3,770;   -3,940; 0,43000
 802,04;    6,730;    5,160;    4,240; 1,57000
 802,36;    7,150;    6,370;   -2,970; 0,78000
 802,69;    7,780;    1,400;   -4,430; 6,38000
 803,01;    5,050;    3,060;    0,510; 1,99000
 803,34;    0,050;    2,140;   -2,400;-2,09000
 803,66;    9,420;    2,650;    3,190; 6,77000
 803,99;    4,660;   -4,550;    2,060; 9,21000
 804,31;    1,110;    3,680;    4,070;-2,57000
 804,64;    0,250;    2,620;    3,730;-2,37000
 804,96;    1,190;    0,140;    3,880; 1,05000
 805,29;   -0,850;    2,980;    6,430;-3,83000
 805,61;    2,030;   -2,400;    1,440; 4,43000
 805,94;    0,970;    2,210;    0,290;-1,24000
 806,26;    3,650;    3,530;    3,510; 0,12000
 806,58;    5,990;    1,950;   -2,160; 4,04000
 806,91;   -4,030;   -1,270;    0,750;-2,76000
 807,23;    0,350;    3,150;    2,050;-2,80000
 807,56;    3,380;   -0,650;    6,540; 4,03000
 807,88;   -0,880;    0,060;    8,290;-0,94000
 808,21;    1,510;    3,580;   -5,460;-2,07000
 808,53;   -3,000;    0,880;    1,340;-3,88000
 808,86;   -5,090;    6,660;   -5,240;-11,75000
 809,18;    4,090;    0,230;    0,450; 3,86000
 809,51;   -2,110;    0,180;   -5,160;-2,29000
 809,83;   -4,320;    8,690;    5,870;-13,01000
 810,15;    3,270;    5,640;    5,920;-2,37000
 810,48;   -3,100;    8,850;   -2,210;-11,95000
 810,80;    1,390;    2,550;    2,710;-1,16000
 811,13;   -1,450;    2,670;    1,330;-4,12000
 811,45;    0,490;    0,620;    4,280;-0,13000
 811,78;   -3,930;    1,970;   -1,820;-5,90000
 812,10;    4,580;    0,530;   -1,550; 4,05000
 812,43;   -5,660;    2,040;   -0,300;-7,70000
 812,75;   -2,370;   -2,840;   -0,680; 0,47000
 813,07;   -2,220;    3,490;   -2,030;-5,71000
 813,40;    0,210;    1,510;    0,510;-1,30000
 813,72;   -2,640;    3,290;    2,300;-5,93000
 814,05;    8,610;    1,500;  -10,090; 7,11000
 814,37;   -0,980;    2,340;   31,260;-3,32000
 814,70;    1,060;    1,320;   61,550;-0,26000
 815,02;   -6,150;    2,250;    5,520;-8,40000
 815,34;   -1,750;   -1,570;    6,800;-0,18000
 815,67;   -6,600;    1,370;   -0,140;-7,97000
 815,99;   -1,680;    7,580;    9,640;-9,26000
 816,32;   -4,780;    2,850;    8,350;-7,63000
 816,64;    1,920;   -0,560;    2,190; 2,48000
 816,96;   -4,450;    0,610;    2,150;-5,06000
 817,29;   -5,790;    0,290;    5,700;-6,08000
 817,61;   -7,930;    5,710;   -0,090;-13,64000
 817,94;    3,620;   -5,920;   -4,630; 9,54000
 818,26;   -6,120;    7,930;    0,990;-14,05000
 818,59;   -2,240;    2,550;    5,280;-4,79000
 818,91;   -3,260;    0,540;    8,430;-3,80000
 819,23;   -2,660;   -1,260;    0,910;-1,40000
 819,56;   -7,230;    5,500;    3,240;-12,73000
 819,88;    6,510;    3,370;   -7,150; 3,14000
 820,21;  -10,520;   -1,320;    3,060;-9,20000
 820,53;   -7,060;    1,910;   -2,300;-8,97000
 820,85;   -2,410;    3,290;    0,780;-5,70000
 821,18;   -5,140;    1,290;    3,130;-6,43000
 821,50;  -11,070;    0,450;    3,530;-11,52000
 821,83;   -4,250;   -2,350;    7,580;-1,90000
 822,15;  -10,940;    4,630;    7,190;-15,57000
 822,47;   -1,360;    1,110;    7,210;-2,47000
 822,80;   -7,380;    3,790;   -0,170;-11,17000
 823,12;   -4,500;    5,770;   -0,530;-10,27000
 823,44;   -8,390;    6,760;    3,590;-15,15000
 823,77;   -3,750;    2,550;   -0,400;-6,30000
 824,09;   -3,130;    1,410;    3,470;-4,54000
 824,42;   -8,500;    2,780;    6,480;-11,28000
 824,74;   -3,270;    1,070;   -1,380;-4,34000
 825,06;   -6,300;    4,610;    1,190;-10,91000
 825,39;    1,610;   -2,820;    5,130; 4,43000
 825,71;    0,500;   -2,300;    6,440; 2,80000
 826,04;   -7,760;    3,080;    2,380;-10,84000
 826,36;  -10,190;   -7,770;    1,330;-2,42000
 826,68;   -0,630;    7,170;    6,520;-7,80000
 827,01;  -11,160;    0,330;    3,130;-11,49000
 827,33;   -2,180;    4,420;    5,530;-6,60000
 827,65;   -4,400;   -1,410;   -5,490;-2,99000
 827,98;   -6,660;    5,420;    0,550;-12,08000
 828,30;   -7,930;   -0,570;    3,600;-7,36000
 828,62;  -10,690;    1,600;    3,190;-12,29000
 828,95;   -4,410;    3,920;   -1,530;-8,33000
 829,27;  -15,560;    1,340;    2,900;-16,90000
 829,60;  -11,740;    4,940;   -9,270;-16,68000
 829,92;   -6,970;    0,760;    2,030;-7,73000
 830,24;   -5,090;    0,420;    2,390;-5,51000
 830,57;  -15,270;   -0,430;    2,880;-14,84000
 830,89;   -8,660;    0,400;    4,220;-9,06000
 831,21;  -11,010;    4,440;    4,540;-15,45000
 831,54;  -10,540;    0,780;   -1,460;-11,32000
 831,86;  -10,280;    4,460;    7,140;-14,74000
 832,18;   -7,660;   -3,500;    2,490;-4,16000
 832,51;   -8,530;    2,720;   -0,150;-11,25000
 832,83;   -4,480;    2,830;    3,110;-7,31000
 833,15;   -8,500;    7,450;    3,970;-15,95000
 833,48;  -11,410;    5,690;   -1,710;-17,10000
 833,80;   -5,930;    2,270;   -0,220;-8,20000
 834,12;   -7,970;   -6,650;   -0,460;-1,32000
 834,45;   -8,330;    2,470;    5,760;-10,80000
 834,77;   -7,640;    1,360;   -0,960;-9,00000
 835,09;  -14,860;   -0,290;    1,700;-14,57000
 835,42;   -8,000;    0,710;   10,140;-8,71000
 835,74;   -4,510;    7,570;   -1,360;-12,08000
 836,06;  -12,400;   -2,340;    2,470;-10,06000
 836,39;  -10,210;    2,190;    5,200;-12,40000
 836,71;   -6,000;    4,480;   -2,070;-10,48000
 837,03;  -11,300;    1,000;    0,000;-12,30000
 837,36;   -9,460;    2,520;    3,080;-11,98000
 837,68;  -10,650;    6,510;    5,970;-17,16000
 838,00;  -10,580;   -0,320;   -1,360;-10,26000
 838,33;  -16,740;    4,200;    4,250;-20,94000
 838,65;   -8,300;   -0,410;   -2,690;-7,89000
 838,97;   -8,680;    4,160;    5,140;-12,84000
 839,30;   -7,820;    1,040;    0,440;-8,86000
 839,62;   -7,750;    3,500;    2,150;-11,25000
 839,94;   -6,150;   -3,070;   -2,980;-3,08000
 840,27;  -15,700;    5,470;   -0,440;-21,17000
 840,59;    0,110;   -5,630;    4,530; 5,74000
 840,91;   -9,890;   -1,240;    2,590;-8,65000
 841,24;   -8,000;    2,400;    1,140;-10,40000
 841,56;   -6,060;    8,080;    4,230;-14,14000
 841,88;   -3,220;   -2,490;   -1,630;-0,73000
 842,21;  -17,170;    4,300;    1,280;-21,47000
 842,53;  -12,340;   -7,580;   -4,630;-4,76000
 842,85;  -23,570;   -8,070;    6,080;-15,50000
 843,17;   12,930;   22,670;    4,440;-9,74000
 843,50;   55,130;   69,940;    4,940;-14,81000
 843,82;   -9,640;   -2,950;    2,600;-6,69000
 844,14;  -12,000;   -4,100;    5,270;-7,90000
 844,47;   -9,840;    1,790;    1,790;-11,63000
 844,79;  -16,430;    4,510;    1,140;-20,94000
 845,11;  -15,590;   -1,960;   -1,210;-13,63000
 845,44;  -15,780;   10,040;    7,510;-25,82000
 845,76;   -9,280;    2,320;    3,750;-11,60000
 846,08;   -8,600;    3,160;    6,200;-11,76000
 846,40;  -13,610;   -4,020;   -6,100;-9,59000
 846,73;   -5,570;   -2,450;   -0,440;-3,12000
 847,05;   -9,500;    3,210;   -3,930;-12,71000
 847,37;  -15,120;    3,630;   -3,200;-18,75000
 847,70;   -9,710;   -2,530;    1,910;-7,18000
 848,02;   -8,440;    1,950;   -3,330;-10,39000
 848,34;  -10,550;    3,770;    1,210;-14,32000
 848,66;  -19,410;    2,650;   -3,620;-22,06000
 848,99;  -13,620;   -3,330;    1,730;-10,29000
 849,31;   -9,410;    6,900;    6,940;-16,31000
 849,63;  -13,710;    6,000;   11,030;-19,71000
 849,95;  -17,130;    1,280;    4,190;-18,41000
 850,28;   -2,910;    1,570;   10,190;-4,48000
 850,60;  -13,210;    3,840;    7,070;-17,05000
 850,92;  -14,060;    1,740;    7,530;-15,80000
 851,25;  -14,350;    2,010;    0,310;-16,36000
 851,57;  -19,460;   -2,170;    3,680;-17,29000
 851,89;  -14,470;    5,060;    1,220;-19,53000
 852,21;   -9,120;    5,740;   -0,890;-14,86000
 852,54;  -10,280;    6,990;    3,020;-17,27000
 852,86;  -14,840;    2,710;    3,860;-17,55000
 853,18;  -17,890;    2,940;    4,090;-20,83000
 853,50;   -7,260;   -1,800;    4,840;-5,46000
 853,83;   -9,470;   -0,970;   -4,430;-8,50000
 854,15;   -9,830;    3,710;    7,480;-13,54000
 854,47;  -15,370;    1,170;    1,020;-16,54000
 854,79;  -11,650;   -2,340;   -2,600;-9,31000
 855,12;   -4,220;    2,060;   -5,380;-6,28000
 855,44;   -9,480;    2,700;   -1,860;-12,18000
 855,76;   -8,440;    3,240;   -5,690;-11,68000
 856,08;  -15,430;   -2,320;    2,150;-13,11000
 856,41;  -14,760;    3,630;    4,050;-18,39000
 856,73;  -11,350;   -0,470;   -1,140;-10,88000
 857,05;  -15,170;    1,810;    5,900;-16,98000
 857,37;   -9,350;   -0,310;    1,240;-9,04000
 857,70;  -13,640;   -1,300;    2,220;-12,34000
 858,02;   -7,620;    2,020;   -4,050;-9,64000
 858,34;  -16,300;    0,000;    7,220;-16,30000
 858,66;   -8,900;    3,310;   -1,720;-12,21000
 858,98;  -16,630;    8,760;    5,070;-25,39000
 859,31;  -13,260;   -1,170;    2,270;-12,09000
 859,63;  -15,440;    5,900;    4,840;-21,34000
 859,95;  -13,900;    1,770;    6,810;-15,67000
 860,27;  -12,190;    2,280;   -0,960;-14,47000
 860,60;  -18,110;    2,610;    1,650;-20,72000
 860,92;  -16,970;    4,000;    0,130;-20,97000
 861,24;  -14,770;    3,270;    5,340;-18,04000
 861,56;  -17,050;   -6,130;    3,920;-10,92000
 861,88;  -17,430;    5,950;    1,500;-23,38000
 862,21;  -13,130;    2,290;    2,720;-15,42000
 862,53;  -12,100;    4,850;   -2,430;-16,95000
 862,85;  -11,110;    4,280;    4,010;-15,39000
 863,17;  -16,240;   -1,660;   -3,260;-14,58000
 863,50;  -18,060;   -1,770;   -2,870;-16,29000
 863,82;  -18,280;    2,610;    6,340;-20,89000
 864,14;  -14,720;    4,150;   -0,730;-18,87000
 864,46;  -18,640;   -3,500;    4,000;-15,14000
 864,78;  -16,370;    4,470;    4,580;-20,84000
 865,11;  -17,640;    1,810;    2,320;-19,45000
 865,43;  -14,190;    1,930;    6,840;-16,12000
 865,75;  -17,530;    0,950;   -3,770;-18,48000
 866,07;  -11,650;    3,980;    7,260;-15,63000
 866,39;  -21,990;   -1,030;    3,140;-20,96000
 866,72;  -13,680;    5,130;   -3,560;-18,81000
 867,04;   -6,360;   -1,050;    8,530;-5,31000
 867,36;  -20,870;    3,730;    2,550;-24,60000
 867,68;   -4,420;    0,250;    1,540;-4,67000
 868,00;  -14,550;    2,410;    6,000;-16,96000
 868,33;  -11,810;    0,690;    1,370;-12,50000
 868,65;  -15,280;    1,580;    2,270;-16,86000
 868,97;  -17,230;   -4,890;   -2,340;-12,34000
 869,29;  -19,320;   -1,900;    4,240;-17,42000
 869,61;   -7,640;    6,440;   -3,760;-14,08000
 869,93;  -14,640;    2,370;    6,130;-17,01000
 870,26;  -15,760;   -1,010;    4,530;-14,75000
 870,58;  -13,420;    7,320;    7,600;-20,74000
 870,90;  -19,960;    1,630;    0,700;-21,59000
 871,22;  -11,340;    1,350;    5,530;-12,69000
 871,54;   -9,230;    3,270;    4,880;-12,50000
 871,87;  -16,170;    0,220;    5,500;-16,39000
 872,19;  -11,610;    0,980;    4,240;-12,59000
 872,51;  -12,670;    4,230;    0,360;-16,90000
 872,83;   -9,070;    2,600;    6,040;-11,67000
 873,15;   -7,310;    5,230;    0,640;-12,54000
 873,47;  -12,650;   -3,480;    4,410;-9,17000
 873,80;  -21,610;    0,140;   -4,410;-21,75000
 874,12;  -15,140;   -3,650;    7,040;-11,49000
 874,44;  -15,220;    4,600;    2,370;-19,82000
 874,76;   -9,390;    4,800;    5,730;-14,19000
 875,08;  -21,950;    2,840;   -0,210;-24,79000
 875,40;  -10,650;   -2,320;    0,330;-8,33000
 875,72;  -15,560;    2,590;    4,210;-18,15000
 876,05;  -18,910;   -9,260;    5,710;-9,65000
 876,37;  -14,950;    8,090;    1,970;-23,04000
 876,69;  -14,750;    2,480;    0,080;-17,23000
 877,01;  -16,150;    2,000;    3,510;-18,15000
 877,33;  -20,730;    2,490;    2,620;-23,22000
 877,65;  -16,380;   -2,360;   -6,280;-14,02000
 877,98;  -14,870;   -2,300;    5,220;-12,57000
 878,30;  -19,920;   -1,240;    3,960;-18,68000
 878,62;  -18,120;    2,730;    3,570;-20,85000
 878,94;  -15,310;    6,710;    3,120;-22,02000
 879,26;  -14,120;    5,610;    0,100;-19,73000
 879,58;  -16,880;    0,720;   -1,120;-17,60000
 879,90;  -13,590;    0,760;    4,670;-14,35000
 880,23;  -16,200;    3,230;    3,720;-19,43000
 880,55;  -19,970;   -5,110;   -2,700;-14,86000
 880,87;  -19,540;    9,120;   -2,250;-28,66000
 881,19;  -16,680;    4,800;    2,930;-21,48000
 881,51;  -21,570;   -1,060;    8,020;-20,51000
 881,83;  -19,710;   -0,680;    4,950;-19,03000
 882,15;  -22,110;    7,270;    7,710;-29,38000
 882,47;  -21,120;    3,700;   -1,750;-24,82000
 882,80;  -18,990;    4,710;    4,700;-23,70000
 883,12;  -15,850;    0,960;    0,730;-16,81000
 883,44;  -14,400;    0,790;   -8,280;-15,19000
 883,76;  -16,760;   -4,650;   27,520;-12,11000
 884,08;  -19,340;    1,480;   67,760;-20,82000
 884,40;  -17,130;    1,920;   10,540;-19,05000
 884,72;  -16,970;    7,520;    5,960;-24,49000
 885,04;   -8,470;    1,880;   -0,700;-10,35000
 885,36;  -15,870;    2,010;    6,500;-17,88000
 885,69;  -12,350;  -10,190;   -2,140;-2,16000
 886,01;  -13,540;    3,370;    2,640;-16,91000
 886,33;  -12,010;    0,150;    2,230;-12,16000
 886,65;  -20,060;    0,430;    0,590;-20,49000
 886,97;  -19,750;   -6,050;    1,360;-13,70000
 887,29;  -17,760;   -0,840;   -1,600;-16,92000
 887,61;  -14,820;   -3,110;   -6,170;-11,71000
 887,93;  -13,950;    4,260;    9,420;-18,21000
 888,25;  -10,050;   -2,030;   -0,100;-8,02000
 888,58;  -17,680;    0,990;   -0,580;-18,67000
 888,90;  -16,720;    2,420;    0,290;-19,14000
 889,22;  -17,970;    5,570;   -3,700;-23,54000
 889,54;  -16,760;   -9,000;    2,240;-7,76000
 889,86;  -15,720;   -4,410;   -1,530;-11,31000
 890,18;  -10,810;   -0,510;    2,810;-10,30000
 890,50;  -11,560;    6,650;    6,230;-18,21000
 890,82;  -14,940;    5,960;   -1,410;-20,90000
 891,14;  -13,530;    6,240;   -0,390;-19,77000
 891,46;  -12,920;    5,090;    2,810;-18,01000
 891,78;  -18,810;    1,710;    4,600;-20,52000
 892,11;  -21,660;    1,260;    3,310;-22,92000
 892,43;  -20,260;    2,290;    2,180;-22,55000
 892,75;   -8,490;   -5,310;    4,090;-3,18000
 893,07;  -15,570;    6,150;   -0,200;-21,72000
 893,39;  -18,050;   -0,540;    3,880;-17,51000
 893,71;  -16,750;    1,520;    4,750;-18,27000
 894,03;  -12,140;   -3,580;   -1,730;-8,56000
 894,35;  -21,130;    8,950;    6,250;-30,08000
 894,67;  -18,930;    0,660;    0,550;-19,59000
 894,99;  -18,920;    3,070;    6,420;-21,99000
 895,31;  -13,760;   10,190;    1,610;-23,95000
 895,63;  -15,220;   -0,140;    2,070;-15,08000
 895,95;   -7,760;   -1,800;    3,120;-5,96000
 896,27;  -23,920;    3,380;    8,000;-27,30000
 896,60;  -16,450;    3,930;    1,790;-20,38000
 896,92;  -16,560;    4,610;    6,780;-21,17000
 897,24;  -15,590;    3,460;   -5,020;-19,05000
 897,56;  -22,260;    2,530;    2,770;-24,79000
 897,88;  -16,850;    5,530;    5,030;-22,38000
 898,20;  -14,280;    6,150;    7,660;-20,43000
 898,52;  -24,330;   -1,760;    1,130;-22,57000
 898,84;  -21,930;    8,510;   -1,390;-30,44000
 899,16;  -13,640;   -3,660;    0,930;-9,98000
 899,48;  -18,100;   -0,460;    1,970;-17,64000
 899,80;  -21,390;   -1,280;    0,840;-20,11000
 900,12;  -15,310;    9,990;    3,030;-25,30000
 900,44;  -14,660;    9,550;    3,150;-24,21000
 900,76;  -17,360;    7,450;    5,920;-24,81000
 901,08;   -9,360;   -2,310;    7,640;-7,05000
 901,40;  -11,280;    6,930;    4,670;-18,21000
 901,72;  -17,890;    0,420;   -2,790;-18,31000
 902,04;  -15,420;   -0,270;    1,410;-15,15000
 902,36;  -18,100;    1,280;    7,150;-19,38000
 902,68;  -14,250;    1,900;    4,780;-16,15000
 903,00;   -6,810;    1,670;   -3,810;-8,48000
 903,32;  -15,480;    4,770;    1,670;-20,25000
 903,64;  -14,660;   -1,310;    3,330;-13,35000
 903,97;  -23,680;   -0,110;    5,000;-23,57000
 904,29;  -15,800;   -1,080;    1,550;-14,72000
 904,61;  -15,750;    4,840;    6,880;-20,59000
 904,93;  -20,160;    0,140;    5,120;-20,30000
 905,25;  -18,310;    6,270;    1,860;-24,58000
 905,57;  -20,660;    6,410;    2,510;-27,07000
 905,89;  -18,400;    3,160;   -1,740;-21,56000
 906,21;  -18,710;   -1,250;    0,180;-17,46000
 906,53;  -24,570;    7,800;   -4,260;-32,37000
 906,85;  -13,970;   -2,650;   -8,460;-11,32000
 907,17;  -21,230;   -2,970;    0,820;-18,26000
 907,49;  -16,450;    0,410;    5,010;-16,86000
 907,81;  -13,690;    1,850;    2,600;-15,54000
 908,13;  -13,660;   -4,620;    2,000;-9,04000
 908,45;  -19,500;    8,340;    3,660;-27,84000
 908,77;  -17,880;    1,510;   -1,140;-19,39000
 909,09;  -19,820;   11,040;    4,610;-30,86000
 909,41;  -19,750;    0,530;    0,770;-20,28000
 909,73;   -9,180;   -3,320;    1,290;-5,86000
 910,05;  -16,400;   -7,660;    2,870;-8,74000
 910,37;  -18,240;    9,350;    7,460;-27,59000
 910,69;  -14,600;    3,370;    1,700;-17,97000
 911,01;  -13,630;   -0,720;    1,770;-12,91000
 911,33;  -12,830;    2,550;   -1,830;-15,38000
 911,65;  -19,130;   -0,010;    8,470;-19,12000
 911,97;  -14,470;    2,450;    4,010;-16,92000
 912,29;  -12,950;    4,670;   -3,610;-17,62000
 912,61;  -16,640;    6,090;   -4,220;-22,73000
 912,93;  -12,800;    1,080;    1,200;-13,88000
 913,25;  -15,490;    6,860;   -4,250;-22,35000
 913,57;  -22,370;    3,090;    0,210;-25,46000
 913,89;   -9,780;    0,130;    0,030;-9,91000
 914,21;  -13,700;    4,400;    1,840;-18,10000
 914,53;  -19,050;   -2,290;    1,920;-16,76000
 914,85;  -25,340;    5,520;   -0,400;-30,86000
 915,17;  -15,300;    2,330;   -1,290;-17,63000
 915,48;  -19,570;    0,790;    4,150;-20,36000
 915,80;  -15,400;   -0,460;   -3,310;-14,94000
 916,12;  -15,420;   -0,620;    3,350;-14,80000
 916,44;  -10,840;    0,650;   -5,340;-11,49000
 916,76;  -16,460;    4,130;    2,990;-20,59000
 917,08;  -16,730;    4,580;   -5,170;-21,31000
 917,40;  -12,570;    0,480;    1,110;-13,05000
 917,72;  -15,890;   -1,150;   -5,280;-14,74000
 918,04;   -9,990;    0,120;   -2,980;-10,11000
 918,36;  -22,240;    0,380;   -2,880;-22,62000
 918,68;  -17,930;    1,800;    5,410;-19,73000
 919,00;  -13,170;   -0,370;    1,190;-12,80000
 919,32;  -17,140;    8,780;    1,900;-25,92000
 919,64;  -14,400;   -1,600;   -3,460;-12,80000
 919,96;  -16,550;    4,090;    1,910;-20,64000
 920,28;  -16,910;   -4,450;   -3,590;-12,46000
 920,60;  -17,790;    7,600;    4,930;-25,39000
 920,92;  -18,090;   -3,950;    4,080;-14,14000
 921,24;  -19,270;    6,120;    0,130;-25,39000
 921,56;   -8,510;    0,060;    2,520;-8,57000
 921,88;  -14,140;    8,510;   -1,030;-22,65000
 922,20;  -23,910;   -1,630;    7,080;-22,28000
 922,52;  -15,200;    2,560;    9,970;-17,76000
 922,83;  -14,030;   -0,860;    1,080;-13,17000
 923,15;  -19,460;    9,690;    6,100;-29,15000
 923,47;  -20,340;   -2,680;    0,840;-17,66000
 923,79;  -16,960;   -2,270;    5,060;-14,69000
 924,11;  -32,640;  -13,520;   -4,570;-19,12000
 924,43;   13,270;   28,070;   -1,790;-14,80000
 924,75;   44,920;   65,600;    6,740;-20,68000
 925,07;  -18,220;    2,340;    9,210;-20,56000
 925,39;  -14,020;   -3,720;    3,200;-10,30000
 925,71;  -21,640;    6,030;    1,310;-27,67000
 926,03;  -15,090;    1,170;    4,700;-16,26000
 926,35;  -20,480;   -0,040;    5,760;-20,44000
 926,67;  -15,660;   -0,280;    0,120;-15,38000
 926,99;  -11,500;    4,880;    5,140;-16,38000
 927,30;  -14,660;   -0,330;    4,580;-14,33000
 927,62;  -17,830;    3,140;    4,230;-20,97000
 927,94;  -12,190;    6,040;   -8,900;-18,23000
 928,26;  -20,880;    1,290;    3,040;-22,17000
 928,58;   -9,650;    1,340;    1,360;-10,99000
 928,90;  -13,470;    7,120;    9,150;-20,59000
 929,22;  -17,230;    0,730;   -6,500;-17,96000
 929,54;   -6,010;    4,720;    6,830;-10,73000
 929,86;   -9,880;   -0,290;   -4,160;-9,59000
 930,18;  -12,410;    5,380;    5,680;-17,79000
 930,50;  -14,150;    0,580;    1,000;-14,73000
 930,81;  -10,630;    4,710;   -3,660;-15,34000
 931,13;  -17,810;   -2,770;    2,320;-15,04000
 931,45;  -17,070;    1,090;    0,830;-18,16000
 931,77;  -12,230;   -1,250;   -0,410;-10,98000
 932,09;  -14,780;    4,780;   -0,440;-19,56000
 932,41;  -13,180;    1,850;    2,300;-15,03000
 932,73;  -16,960;    5,850;   -1,930;-22,81000
 933,05;  -12,260;    2,130;    1,440;-14,39000
 933,37;  -22,160;    4,780;    3,660;-26,94000
 933,68;  -14,150;    2,030;    4,000;-16,18000
 934,00;  -21,110;    3,330;   -0,180;-24,44000
 934,32;  -14,690;    3,270;    1,170;-17,96000
 934,64;  -12,310;   -2,020;    6,270;-10,29000
 934,96;  -16,900;    0,160;    7,970;-17,06000
 935,28;  -18,440;   12,120;    9,960;-30,56000
 935,60;  -12,930;    2,460;    5,020;-15,39000
 935,92;  -18,000;    2,600;   -3,830;-20,60000
 936,24;  -18,560;    2,640;   -4,530;-21,20000
 936,55;  -14,600;    2,200;    5,410;-16,80000
 936,87;  -16,180;    0,170;    2,940;-16,35000
 937,19;  -13,540;    4,630;    2,540;-18,17000
 937,51;  -14,990;    5,280;    5,580;-20,27000
 937,83;  -10,230;    4,980;    7,720;-15,21000
 938,15;  -16,130;    0,370;    3,230;-16,50000
 938,47;  -15,460;   -4,710;    3,770;-10,75000
 938,78;  -14,410;   -3,600;    3,280;-10,81000
 939,10;  -13,210;    5,710;    2,940;-18,92000
 939,42;  -16,260;    1,420;   -0,240;-17,68000
 939,74;  -19,610;   12,340;    8,320;-31,95000
 940,06;  -22,790;    1,090;   -0,630;-23,88000
 940,38;  -17,160;    2,330;    2,520;-19,49000
 940,70;  -16,200;    5,000;    5,220;-21,20000
 941,02;  -10,050;    3,500;   -0,160;-13,55000
 941,33;  -11,460;    2,970;    0,640;-14,43000
 941,65;   -8,180;    0,810;    4,010;-8,99000
 941,97;  -12,380;    6,870;    6,860;-19,25000
 942,29;  -14,410;   10,630;   -2,390;-25,04000
 942,61;  -11,710;    0,720;    3,980;-12,43000
 942,93;  -13,800;   -1,060;    4,480;-12,74000
 943,24;  -15,090;    1,500;   -7,500;-16,59000
 943,56;  -17,730;    6,100;    5,150;-23,83000
 943,88;  -18,390;   -3,350;   17,720;-15,04000
 944,20;  -16,640;   -0,030;   -0,530;-16,61000
 944,52;  -16,780;   -3,080;    3,620;-13,70000
 944,84;  -12,850;    1,290;    5,120;-14,14000
 945,15;  -13,760;    2,640;    3,360;-16,40000
 945,47;  -15,270;    4,250;    7,050;-19,52000
 945,79;  -13,070;    5,900;    4,370;-18,97000
 946,11;  -14,200;   -2,700;    4,410;-11,50000
 946,43;  -15,630;   -1,710;    3,440;-13,92000
 946,75;  -19,220;   -0,680;    0,920;-18,54000
 947,06;  -13,750;    5,660;    5,020;-19,41000
 947,38;  -12,120;    0,770;    1,140;-12,89000
 947,70;  -18,300;   -2,600;    0,390;-15,70000
 948,02;  -10,460;    7,130;    4,390;-17,59000
 948,34;  -14,870;    0,980;    1,470;-15,85000
 948,66;  -12,220;    1,070;    6,230;-13,29000
 948,97;  -17,340;   -0,070;    1,430;-17,27000
 949,29;  -24,010;    2,260;    5,970;-26,27000
 949,61;  -13,240;   -1,970;    6,860;-11,27000
 949,93;  -14,000;    5,710;    2,080;-19,71000
 950,25;  -20,830;   -5,430;    0,480;-15,40000
 950,56;  -13,920;    5,440;    2,230;-19,36000
 950,88;  -14,460;    1,170;    2,030;-15,63000
 951,20;  -14,550;    3,150;    5,930;-17,70000
 951,52;  -18,480;   -5,140;   -1,300;-13,34000
 951,84;  -18,900;    5,440;    7,660;-24,34000
 952,15;   -9,750;    2,130;   -6,660;-11,88000
 952,47;  -13,790;    7,370;   26,650;-21,16000
 952,79;  -17,390;   -0,750;   70,500;-16,64000
 953,11;  -17,000;    1,420;    4,370;-18,42000
 953,43;  -11,690;   -1,860;    4,440;-9,83000
 953,74;  -13,690;    8,920;    0,090;-22,61000
 954,06;  -13,340;   -5,380;    1,240;-7,96000
 954,38;  -12,070;   -0,180;    3,520;-11,89000
 954,70;  -12,450;    0,980;   -3,320;-13,43000
 955,02;  -12,310;   -4,190;    6,550;-8,12000
 955,33;  -14,440;   -1,410;    0,140;-13,03000
 955,65;  -18,860;    1,190;    3,220;-20,05000
 955,97;  -18,090;    0,160;   -4,750;-18,25000
 956,29;  -16,900;    5,720;    4,320;-22,62000
 956,60;  -11,570;    5,200;   -1,420;-16,77000
 956,92;   -9,960;    6,020;    1,930;-15,98000
 957,24;  -14,230;    1,490;    3,920;-15,72000
 957,56;  -18,560;    0,510;   -3,610;-19,07000
 957,88;  -13,490;    1,200;    0,220;-14,69000
 958,19;  -15,360;    6,360;    5,190;-21,72000
 958,51;  -20,970;    2,760;   -1,420;-23,73000
 958,83;   -9,520;    1,670;    7,070;-11,19000
 959,15;  -13,070;   -0,700;   -2,300;-12,37000
 959,46;  -17,110;    2,590;    3,950;-19,70000
 959,78;  -11,360;    1,690;   -1,470;-13,05000
 960,10;  -13,230;   -0,390;    9,230;-12,84000
 960,42;  -13,350;    0,490;    1,840;-13,84000
 960,73;  -16,440;    4,490;    4,250;-20,93000
 961,05;  -18,650;   -1,860;    3,320;-16,79000
 961,37;  -16,080;    2,100;    5,640;-18,18000
 961,69;  -14,670;    4,040;   -1,680;-18,71000
 962,00;  -10,610;    2,590;    5,990;-13,20000
 962,32;  -10,900;   -1,530;   -3,410;-9,37000
 962,64;  -17,870;    2,150;    0,740;-20,02000
 962,96;  -11,990;    0,250;    6,930;-12,24000
 963,27;   -9,940;    1,690;    5,840;-11,63000
 963,59;  -10,080;   -1,190;    0,590;-8,89000
 963,91;  -14,390;    4,780;    2,400;-19,17000
 964,23;  -14,800;   -0,990;    1,350;-13,81000
 964,54;  -13,190;    9,490;    1,850;-22,68000
 964,86;  -10,260;   -5,180;    1,280;-5,08000
 965,18;  -14,190;    4,470;   -0,490;-18,66000
 965,50;   -8,200;    2,990;   10,100;-11,19000
 965,81;  -11,810;   -4,530;    1,490;-7,28000
 966,13;  -12,980;   -1,560;    1,680;-11,42000
 966,45;  -12,920;    8,250;    6,590;-21,17000
 966,77;  -10,590;    1,260;   -2,750;-11,85000
 967,08;   -8,000;    4,670;    6,030;-12,67000
 967,40;  -13,330;    0,780;    3,480;-14,11000
 967,72;  -13,460;    3,660;    8,100;-17,12000
 968,03;  -16,490;    0,330;   -0,820;-16,82000
 968,35;  -12,010;    1,930;    4,100;-13,94000
 968,67;  -15,020;   -2,170;   -1,720;-12,85000
 968,99;  -19,480;    6,470;    5,390;-25,95000
 969,30;  -12,010;    2,370;    1,920;-14,38000
 969,62;   -7,120;    5,430;    3,540;-12,55000
 969,94;  -15,130;   -0,740;    3,150;-14,39000
 970,25;  -13,180;    1,980;    2,710;-15,16000
 970,57;   -8,620;    4,860;    6,400;-13,48000
 970,89;   -7,400;    4,650;    0,790;-12,05000
 971,21;   -6,290;    2,420;    3,880;-8,71000
 971,52;  -17,930;    0,460;   -0,440;-18,39000
 971,84;  -14,020;    3,580;    1,850;-17,60000
 972,16;  -15,990;    9,800;    5,220;-25,79000
 972,47;   -9,160;    0,140;    6,420;-9,30000
 972,79;  -12,490;    1,930;    7,170;-14,42000
 973,11;  -14,880;    4,790;    0,020;-19,67000
 973,42;  -13,220;    0,100;    5,390;-13,32000
 973,74;  -13,550;    3,330;   -3,010;-16,88000
 974,06;  -11,980;    0,410;    0,150;-12,39000
 974,38;  -13,280;    2,490;    1,500;-15,77000
 974,69;  -10,690;    7,000;    7,170;-17,69000
 975,01;  -11,880;    0,620;   -1,840;-12,50000
 975,33;  -17,360;   -0,570;    3,500;-16,79000
 975,64;  -12,750;    1,030;    2,850;-13,78000
 975,96;   -9,910;    5,740;    8,230;-15,65000
 976,28;  -10,110;   -2,920;    1,250;-7,19000
 976,59;  -13,820;    4,420;    3,380;-18,24000
 976,91;  -11,760;    3,670;    3,050;-15,43000
 977,23;  -14,870;   -2,990;    2,010;-11,88000
 977,54;   -7,690;    7,510;   -1,890;-15,20000
 977,86;  -13,210;    1,110;    4,900;-14,32000
 978,18;  -10,920;   -5,140;    6,000;-5,78000
 978,49;   -9,710;    5,700;    3,760;-15,41000
 978,81;  -17,850;   -0,990;    1,210;-16,86000
 979,13;  -16,300;   -1,560;    4,900;-14,74000
 979,44;  -15,480;    3,480;    3,830;-18,96000
 979,76;   -6,270;    5,290;    2,860;-11,56000
 980,08;  -12,720;    3,770;    3,250;-16,49000
 980,39;  -10,780;    5,400;    2,370;-16,18000
 980,71;   -8,590;   -2,760;   -0,310;-5,83000
 981,03;  -16,060;    3,960;    9,190;-20,02000
 981,34;  -13,790;    0,350;    3,500;-14,14000
 981,66;  -14,340;    4,570;    7,280;-18,91000
 981,98;  -12,310;    4,370;   -1,460;-16,68000
 982,29;   -5,340;    2,800;    1,360;-8,14000
 982,61;  -13,110;    2,630;    1,990;-15,74000
 982,93;   -5,810;   -0,040;    2,550;-5,77000
 983,24;  -12,120;    0,350;    4,800;-12,47000
 983,56;   -8,330;    1,630;    2,590;-9,96000
 983,88;  -16,020;   -3,710;    2,770;-12,31000
 984,19;  -12,480;   -0,690;    3,940;-11,79000
 984,51;  -21,100;    4,770;    7,800;-25,87000
 984,83;   -7,390;    7,700;   -1,690;-15,09000
 985,14;   -9,180;   -0,630;    6,820;-8,55000
 985,46;  -16,140;    4,310;    1,310;-20,45000
 985,77;  -12,110;    5,020;    0,860;-17,13000
 986,09;  -17,020;    2,440;    6,720;-19,46000
 986,41;   -7,320;    2,900;    2,920;-10,22000
 986,72;  -23,380;    2,660;    2,370;-26,04000
 987,04;  -15,190;    6,690;   -1,380;-21,88000
 987,36;  -12,500;    0,280;    3,860;-12,78000
 987,67;  -14,110;   -0,550;    0,400;-13,56000
 987,99;  -13,320;    1,830;    5,640;-15,15000
 988,30;   -9,700;    4,570;    0,440;-14,27000
 988,62;  -12,210;   -0,890;    3,210;-11,32000
 988,94;  -17,100;    4,070;    2,220;-21,17000
 989,25;  -13,730;    3,770;    2,400;-17,50000
 989,57;   -9,560;    0,200;    1,860;-9,76000
 989,89;  -16,260;    0,570;    1,690;-16,83000
 990,20;  -11,170;    0,210;    4,810;-11,38000
 990,52;  -11,360;    4,900;    0,240;-16,26000
 990,83;  -15,280;   -0,650;    2,090;-14,63000
 991,15;  -16,820;    6,040;   -3,520;-22,86000
 991,47;   -8,620;    2,760;    4,000;-11,38000
 991,78;  -15,810;    5,870;    5,280;-21,68000
 992,10;  -11,470;    1,280;   -4,070;-12,75000
 992,41;  -18,580;    1,900;   -3,110;-20,48000
 992,73;  -13,210;   -3,700;    0,840;-9,51000
 993,05;  -14,820;    1,350;    1,940;-16,17000
 993,36;  -16,270;    2,450;   -3,720;-18,72000
 993,68;  -17,730;    4,540;   -0,870;-22,27000
 993,99;   -6,580;    0,490;    1,310;-7,07000
 994,31;  -15,320;    3,960;    2,000;-19,28000
 994,63;   -7,120;    0,290;   -0,340;-7,41000
 994,94;  -13,290;    4,360;    8,160;-17,65000
 995,26;  -12,050;   -8,810;   -1,570;-3,24000
 995,57;  -21,400;    7,740;    0,710;-29,14000
 995,89;   -8,570;    2,620;   -2,830;-11,19000
 996,21;   -7,870;    1,580;   -1,460;-9,45000
 996,52;  -11,940;    2,710;    0,900;-14,65000
 996,84;  -16,280;    0,860;    2,890;-17,14000
 997,15;  -11,030;   -1,900;   -0,520;-9,13000
 997,47;  -15,840;    0,920;    8,460;-16,76000
 997,78;  -18,770;    3,880;    0,730;-22,65000
 998,10;  -11,950;    7,430;    3,890;-19,38000
 998,42;  -13,010;   -1,160;    0,670;-11,85000
 998,73;  -17,170;    2,400;    7,070;-19,57000
 999,05;   -9,900;    0,340;    5,320;-10,24000
 999,36;  -13,640;   -0,680;    1,530;-12,96000
 999,68;  -15,270;    0,310;    0,710;-15,58000
 999,99;  -16,550;    6,990;    3,130;-23,54000
1000,31;  -13,860;   -5,710;   -1,420;-8,15000
1000,63;  -13,100;    2,380;    2,310;-15,48000
1000,94;  -19,310;    0,960;    7,480;-20,27000
1001,26;  -14,390;    1,730;    2,220;-16,12000
1001,57;  -18,680;    2,950;    6,500;-21,63000
1001,89;  -15,170;    5,830;    3,430;-21,00000
1002,20;   -9,420;    0,030;   -1,460;-9,45000
1002,52;   -7,720;    6,430;    4,410;-14,15000
1002,83;  -22,510;    3,900;    0,040;-26,41000
1003,15;  -14,560;    4,170;    4,330;-18,73000
1003,47;  -16,510;    0,030;    1,340;-16,54000
1003,78;  -12,770;   -0,140;   -3,780;-12,63000
1004,10;  -10,090;   -2,920;    5,010;-7,17000
1004,41;  -25,880;   -6,570;    1,980;-19,31000
1004,73;   20,580;   23,680;   -1,970;-3,10000
1005,04;   43,740;   68,110;    3,890;-24,37000
1005,36;  -16,740;   -3,540;    6,000;-13,20000
1005,67;  -15,220;    0,640;    5,080;-15,86000
1005,99;   -8,120;    4,650;    3,780;-12,77000
1006,30;  -12,850;   -1,440;    2,660;-11,41000
1006,62;   -6,170;   -1,770;   -6,770;-4,40000
1006,93;  -12,070;    6,850;    1,250;-18,92000
1007,25;  -15,390;    0,310;    1,420;-15,70000
1007,57;  -15,410;    2,510;   -0,740;-17,92000
1007,88;  -11,670;   -7,950;   -3,580;-3,72000
1008,20;  -12,050;    6,260;    5,380;-18,31000
1008,51;  -22,110;   -1,570;    1,200;-20,54000
1008,83;   -9,500;    3,910;    5,790;-13,41000
1009,14;  -11,460;    1,140;   -2,030;-12,60000
1009,46;  -16,640;    5,920;    4,690;-22,56000
1009,77;   -6,850;    1,950;   -7,260;-8,80000
1010,09;  -11,260;    4,260;    3,570;-15,52000
1010,40;  -13,260;   -1,520;   -1,220;-11,74000
1010,72;  -12,020;    2,400;    2,660;-14,42000
1011,03;  -14,480;   -1,790;    0,950;-12,69000
1011,35;  -15,270;    0,040;    4,240;-15,31000
1011,66;  -18,880;   -0,060;    1,840;-18,82000
1011,98;  -17,710;    6,650;   -0,380;-24,36000
1012,29;  -15,030;   -1,650;    2,490;-13,38000
1012,61;  -14,600;    0,240;   10,310;-14,84000
1012,92;  -16,610;   -1,100;   -1,120;-15,51000
1013,24;  -12,390;   -2,300;    6,920;-10,09000
1013,55;  -12,740;   -5,750;   -0,760;-6,99000
1013,87;  -11,250;    6,040;    3,010;-17,29000
1014,18;  -14,310;    0,130;    7,310;-14,44000
1014,50;  -20,100;    0,040;    1,350;-20,14000
1014,81;  -13,570;   -1,000;    1,440;-12,57000
1015,13;  -14,120;    0,590;    4,660;-14,71000
1015,44;  -14,410;    0,340;    0,190;-14,75000
1015,76;  -14,270;    1,540;    3,170;-15,81000
1016,07;   -9,420;    0,280;   -0,740;-9,70000
1016,39;  -10,650;    5,770;    0,450;-16,42000
1016,70;  -11,040;    1,040;    2,240;-12,08000
1017,02;   -8,900;   -2,520;    4,580;-6,38000
1017,33;  -14,070;    0,720;   11,760;-14,79000
1017,65;   -4,650;    3,510;    4,700;-8,16000
1017,96;  -15,050;   -7,330;    7,610;-7,72000
1018,28;  -11,130;    4,740;    7,260;-15,87000
1018,59;   -9,170;   -3,400;   -0,250;-5,77000
1018,90;  -12,950;    0,120;    2,730;-13,07000
1019,22;  -12,290;    5,210;   -1,080;-17,50000
1019,53;   -9,760;    3,380;    7,050;-13,14000
1019,85;  -18,130;   -2,030;    3,410;-16,10000
1020,16;  -16,800;   -0,330;   -2,870;-16,47000
1020,48;  -12,130;   -3,090;   26,180;-9,04000
1020,79;  -14,480;    2,800;   60,410;-17,28000
1021,11;  -11,210;   -0,050;    5,060;-11,16000
1021,42;  -14,100;    0,090;    5,330;-14,19000
1021,74;  -11,210;   -2,120;    4,440;-9,09000
1022,05;  -19,670;    4,440;    6,610;-24,11000
1022,37;  -12,740;    1,920;    0,670;-14,66000
1022,68;  -18,860;    3,440;    1,390;-22,30000
1022,99;  -18,970;    1,870;    6,190;-20,84000
1023,31;  -15,820;   -0,530;   -1,520;-15,29000
1023,62;  -15,800;    0,560;    0,500;-16,36000
1023,94;   -7,500;    4,640;   -2,080;-12,14000
1024,25;  -11,330;   -2,150;   -2,040;-9,18000
1024,57;   -7,870;    6,870;    4,320;-14,74000
1024,88;   -8,640;    1,610;    2,020;-10,25000
1025,20;  -10,060;    0,300;    6,700;-10,36000
1025,51;   -6,790;   -3,850;   -0,060;-2,94000
1025,82;   -9,980;    7,350;   -2,000;-17,33000
1026,14;  -15,250;    1,150;   -1,370;-16,40000
1026,45;   -8,910;   -2,480;   -2,760;-6,43000
1026,77;   -5,670;   -1,110;    2,750;-4,56000
1027,08;  -11,590;    1,800;    8,290;-13,39000
1027,40;  -18,340;   -2,110;   -2,740;-16,23000
1027,71;  -11,770;   -0,090;    6,220;-11,68000
1028,02;  -14,500;    1,840;    1,380;-16,34000
1028,34;  -13,610;    4,280;    9,530;-17,89000
1028,65;  -16,320;    0,860;   -4,500;-17,18000
1028,97;  -18,960;    2,810;    6,610;-21,77000
1029,28;  -14,250;    1,370;    3,430;-15,62000
1029,60;  -13,130;    8,820;    0,310;-21,95000
1029,91;  -14,070;   -2,170;   -0,630;-11,90000
1030,22;  -15,180;    4,970;    0,930;-20,15000
1030,54;  -17,090;    3,660;   -0,540;-20,75000
1030,85;  -21,470;    2,590;    0,890;-24,06000
1031,17;  -13,340;    2,580;    5,870;-15,92000
1031,48;  -18,830;    4,930;    1,980;-23,76000
1031,79;  -17,550;    2,950;   -1,570;-20,50000
1032,11;  -14,570;    4,150;    1,520;-18,72000
1032,42;  -10,650;    0,520;    5,190;-11,17000
1032,74;  -14,920;    0,540;    2,420;-15,46000
1033,05;  -14,020;    4,910;    2,460;-18,93000
1033,36;  -12,840;    1,410;    7,720;-14,25000
1033,68;  -12,620;    7,180;    4,620;-19,80000
1033,99;  -13,840;    5,050;    0,660;-18,89000
1034,31;  -13,480;   -4,270;    7,430;-9,21000
1034,62;   -4,640;    0,400;    5,230;-5,04000
1034,93;   -9,860;    2,560;    2,760;-12,42000
1035,25;   -8,690;    0,010;   -2,310;-8,70000
1035,56;  -15,740;   -4,730;    2,050;-11,01000
1035,88;  -13,400;   -1,150;   12,450;-12,25000
1036,19;  -19,870;    3,030;   -0,290;-22,90000
1036,50;  -10,750;    7,240;    8,070;-17,99000
1036,82;  -13,280;    2,480;    2,310;-15,76000
1037,13;  -16,870;   -3,360;    5,200;-13,51000
1037,44;  -10,590;   -1,580;    2,980;-9,01000
1037,76;  -11,960;   -0,540;    9,840;-11,42000
1038,07;  -14,350;    9,670;    2,210;-24,02000
1038,39;  -11,640;    4,590;    5,820;-16,23000
1038,70;  -18,190;   -0,540;    3,330;-17,65000
1039,01;  -13,430;    0,450;    0,130;-13,88000
1039,33;   -9,090;    6,290;    5,720;-15,38000
1039,64;  -14,030;    1,750;    9,130;-15,78000
1039,95;  -16,680;    0,580;    4,470;-17,26000
1040,27;  -17,930;    3,430;    2,830;-21,36000
1040,58;   -7,250;   -0,760;    7,810;-6,49000
1040,89;  -11,620;    6,260;   -2,340;-17,88000
1041,21;  -10,550;   -1,460;   -1,780;-9,09000
1041,52;  -11,640;   14,340;    4,210;-25,98000
1041,83;  -10,990;    3,230;    2,130;-14,22000
1042,15;  -11,910;    3,440;    6,540;-15,35000
1042,46;  -14,090;   -3,270;   -2,990;-10,82000
1042,78;  -19,060;    5,330;   -3,930;-24,39000
1043,09;  -17,330;   -2,220;    0,590;-15,11000
1043,40;  -12,530;    2,230;    1,700;-14,76000
1043,72;   -8,530;   -4,530;    0,370;-4,00000
1044,03;   -5,940;    3,470;   -0,910;-9,41000
1044,34;  -16,790;    1,960;    1,660;-18,75000
1044,66;  -14,820;    6,300;    1,050;-21,12000
1044,97;   -7,950;    1,070;    2,440;-9,02000
1045,28;   -8,570;    3,870;    1,720;-12,44000
1045,60;  -11,960;   -2,640;    5,200;-9,32000
1045,91;  -16,340;   -0,080;    3,540;-16,26000
1046,22;  -12,560;    0,260;    2,790;-12,82000
1046,54;  -14,260;    0,730;    0,440;-14,99000
1046,85;   -9,160;    6,570;    2,550;-15,73000
1047,16;  -14,140;    5,440;   -0,030;-19,58000
1047,48;  -12,270;   -0,970;    4,270;-11,30000
1047,79;  -12,960;    6,760;   10,710;-19,72000
1048,10;  -14,630;   -0,070;    4,820;-14,56000
1048,42;  -10,170;   12,820;    5,900;-22,99000
1048,73;  -18,980;    0,190;    1,280;-19,17000
1049,04;  -13,020;    0,380;    9,780;-13,40000
1049,35;  -12,820;    1,470;    4,990;-14,29000
1049,67;   -6,910;    6,320;    2,720;-13,23000
1049,98;  -15,110;    1,840;    2,540;-16,95000
1050,29;  -19,440;    1,180;    1,410;-20,62000
1050,61;  -10,180;   -2,900;    8,130;-7,28000
1050,92;  -15,390;    2,250;    4,340;-17,64000
1051,23;  -14,210;   -0,670;    0,190;-13,54000
1051,55;  -12,970;    3,310;   -0,340;-16,28000
1051,86;  -13,440;    0,940;   -1,240;-14,38000
1052,17;  -17,920;    2,610;    4,800;-20,53000
1052,49;  -13,650;   -5,940;    1,340;-7,71000
1052,80;  -16,290;    6,950;   -1,480;-23,24000
1053,11;   -7,300;    0,410;    3,140;-7,71000
1053,42;  -16,560;    3,410;    3,700;-19,97000
1053,74;   -8,490;    3,830;    2,760;-12,32000
1054,05;  -12,660;   -1,860;   -4,820;-10,80000
1054,36;  -15,800;    2,420;    5,420;-18,22000
1054,68;  -13,140;   -0,810;   -4,600;-12,33000
1054,99;  -13,520;   -1,710;    1,680;-11,81000
1055,30;  -14,020;    7,550;    3,390;-21,57000
1055,61;  -14,130;    4,430;    2,920;-18,56000
1055,93;  -13,710;    4,750;    1,720;-18,46000
1056,24;   -9,060;   -2,130;    4,360;-6,93000
1056,55;  -13,850;    2,790;   -1,540;-16,64000
1056,87;   -9,900;    3,300;    1,730;-13,20000
1057,18;  -16,080;   -3,270;    2,860;-12,81000
1057,49;   -7,920;    4,120;   -0,240;-12,04000
1057,80;  -12,560;    6,490;    6,020;-19,05000
1058,12;  -12,620;   -3,010;    0,150;-9,61000
1058,43;   -5,130;    7,610;    2,730;-12,74000
1058,74;  -12,940;   -3,130;    4,670;-9,81000
1059,05;  -11,510;    7,640;    1,250;-19,15000
1059,37;  -10,470;    2,170;   -5,950;-12,64000
1059,68;  -13,410;    4,150;    4,860;-17,56000
1059,99;  -13,630;    4,340;    0,230;-17,97000
1060,30;  -10,770;   -2,450;    3,520;-8,32000
1060,62;   -8,850;    1,800;   -2,970;-10,65000
1060,93;  -17,920;   -1,970;   -2,820;-15,95000
1061,24;   -9,270;    1,410;    4,750;-10,68000
1061,55;  -13,390;    0,420;    0,120;-13,81000
1061,87;  -12,590;    1,750;    4,890;-14,34000
1062,18;  -15,820;   -1,370;    7,090;-14,45000
1062,49;  -13,600;   -2,060;    2,190;-11,54000
1062,80;  -10,430;    4,900;    5,760;-15,33000
1063,12;  -13,390;   -0,080;   -2,620;-13,31000
1063,43;   -7,380;    6,780;    7,540;-14,16000
1063,74;  -11,060;   -4,750;    6,880;-6,31000
1064,05;  -11,040;   -1,980;   12,260;-9,06000
1064,37;   -6,860;    1,310;    2,210;-8,17000
1064,68;   -6,400;   -0,590;   -0,210;-5,81000
1064,99;   -2,450;    0,700;   -3,100;-3,15000
1065,30;   -6,570;    2,610;    3,490;-9,18000
1065,62;  -12,410;    1,580;    0,580;-13,99000
1065,93;  -17,670;    8,070;    2,360;-25,74000
1066,24;  -10,270;   -3,320;    0,570;-6,95000
1066,55;  -10,630;    2,000;    6,170;-12,63000
1066,86;   -9,790;   -2,900;    1,430;-6,89000
1067,18;   -7,900;   -0,800;    0,150;-7,10000
1067,49;   -4,210;   -4,550;    0,560; 0,34000
1067,80;  -12,250;   -0,090;    5,750;-12,16000
1068,11;  -14,490;    5,660;    4,740;-20,15000
1068,43;  -14,480;    6,260;   -0,230;-20,74000
1068,74;  -12,260;    5,720;    3,680;-17,98000
1069,05;  -10,450;    4,560;    4,420;-15,01000
1069,36;  -13,240;    0,880;   -0,020;-14,12000
1069,67;  -12,840;    1,950;    2,850;-14,79000
1069,99;   -9,820;   -0,270;    4,080;-9,55000
1070,30;  -14,940;    4,900;    1,950;-19,84000
1070,61;   -4,540;    0,670;    6,290;-5,21000
1070,92;   -9,170;    6,740;    2,300;-15,91000
1071,23;  -11,870;    1,150;    2,360;-13,02000
1071,55;  -18,440;    3,580;    6,030;-22,02000
1071,86;  -12,920;    6,400;   11,970;-19,32000
1072,17;  -15,690;    2,080;    1,080;-17,77000
1072,48;  -15,300;    0,030;    1,960;-15,33000
1072,79;   -8,820;    4,470;    6,500;-13,29000
1073,11;   -7,570;    0,010;   -2,750;-7,58000
1073,42;  -16,940;    1,800;    4,130;-18,74000
1073,73;   -8,690;    1,550;   -3,000;-10,24000
1074,04;  -18,230;   -0,080;    0,380;-18,15000
1074,35;  -21,210;   -0,550;   -2,880;-20,66000
1074,67;   -9,420;    7,090;    2,240;-16,51000
1074,98;  -10,180;    2,880;   -8,040;-13,06000
1075,29;   -4,830;    5,090;    5,250;-9,92000
1075,60;   -8,800;    9,330;   -5,520;-18,13000
1075,91;  -12,700;    0,000;    5,620;-12,70000
1076,22;   -5,690;   -1,380;   -0,620;-4,31000
1076,54;  -14,560;    3,970;    7,550;-18,53000
1076,85;   -9,040;    0,550;   -1,390;-9,59000
1077,16;  -13,880;   -4,600;    1,310;-9,28000
1077,47;  -12,390;    4,640;    2,610;-17,03000
1077,78;  -13,350;    1,910;    4,900;-15,26000
1078,09;   -9,200;   -0,250;    2,500;-8,95000
1078,41;   -5,960;    7,590;   -0,680;-13,55000
1078,72;   -3,720;    0,760;   -0,660;-4,48000
1079,03;  -14,000;   -1,370;    5,940;-12,63000
1079,34;  -17,330;   -4,650;    3,580;-12,68000
1079,65;   -9,820;   -4,330;    5,850;-5,49000
1079,96;   -6,270;    4,550;    6,520;-10,82000
1080,28;  -15,320;    3,230;   -3,690;-18,55000
1080,59;  -10,560;   -1,640;   -2,370;-8,92000
1080,90;   -7,500;    2,390;    4,310;-9,89000
1081,21;   -5,860;    4,870;    5,260;-10,73000
1081,52;  -15,430;   -2,000;    3,780;-13,43000
1081,83;   -5,820;    4,060;    0,350;-9,88000
1082,14;  -13,760;   -4,060;   -1,750;-9,70000
1082,46;  -17,550;    2,160;   -0,730;-19,71000
1082,77;  -14,720;   -0,560;    4,680;-14,16000
1083,08;  -12,690;    1,190;   -4,540;-13,88000
1083,39;  -14,240;    1,540;    7,470;-15,78000
1083,70;  -19,750;   -9,850;    7,780;-9,90000
1084,01;   18,810;   28,360;    6,430;-9,55000
1084,32;   48,540;   63,010;   -0,350;-14,47000
1084,63;   -7,930;   -0,960;    6,590;-6,97000
1084,95;   -8,110;   -1,090;   -0,160;-7,02000
1085,26;   -9,450;    5,230;   -2,690;-14,68000
1085,57;   -7,080;   -6,150;   -3,770;-0,93000
1085,88;  -12,300;    1,220;    6,320;-13,52000
1086,19;   -8,340;   -0,960;   -6,030;-7,38000
1086,50;  -12,720;    1,590;    1,510;-14,31000
1086,81;   -7,540;   -0,320;   -2,890;-7,22000
1087,12;  -12,110;    1,960;    5,810;-14,07000
1087,44;  -11,550;    1,610;  -11,430;-13,16000
1087,75;  -13,830;    0,700;   35,730;-14,53000
1088,06;   -7,130;   -1,080;   58,240;-6,05000
1088,37;  -10,090;    0,600;    0,810;-10,69000
1088,68;   -7,750;    4,390;    4,570;-12,14000
1088,99;  -10,140;    9,790;    0,690;-19,93000
1089,30;   -8,190;    3,740;   -4,260;-11,93000
1089,61;  -21,260;    9,440;    2,990;-30,70000
1089,92;   -9,160;   -1,070;    2,260;-8,09000
1090,23;   -9,410;    0,320;    7,860;-9,73000
1090,55;   -7,660;   -8,750;    1,670; 1,09000
1090,86;   -8,680;    0,650;    6,130;-9,33000
1091,17;  -10,610;   -2,210;   -5,070;-8,40000
1091,48;   -8,800;    5,710;    8,390;-14,51000
1091,79;   -5,090;    1,530;   -0,520;-6,62000
1092,10;   -8,130;    1,620;    7,400;-9,75000
1092,41;  -10,480;    0,230;    6,290;-10,71000
1092,72;  -18,570;   -3,870;    2,520;-14,70000
1093,03;   -3,140;   -5,630;    0,650; 2,49000
1093,34;  -16,540;   -0,880;    4,380;-15,66000
1093,65;   -6,450;    1,420;    6,220;-7,87000
1093,97;  -16,250;    3,560;    4,560;-19,81000
1094,28;   -9,260;    0,920;    1,570;-10,18000
1094,59;   -2,070;    8,460;    2,380;-10,53000
1094,90;   -9,430;   -0,140;    5,980;-9,29000
1095,21;  -12,700;   -1,130;    1,980;-11,57000
1095,52;  -10,790;    2,570;   13,650;-13,36000
1095,83;  -13,170;    0,090;   -5,870;-13,26000
1096,14;  -14,710;    0,060;    5,280;-14,77000
1096,45;  -10,970;   -1,570;    2,420;-9,40000
1096,76;  -10,130;   -5,400;   -1,260;-4,73000
1097,07;   -9,600;    2,560;   -1,100;-12,16000
1097,38;   -8,670;    2,290;   -3,730;-10,96000
1097,69;  -10,540;    1,700;   -0,290;-12,24000
1098,00;   -9,790;    0,770;   -4,840;-10,56000
1098,31;  -18,520;    5,320;    3,260;-23,84000
1098,63;   -3,500;    1,340;   -0,200;-4,84000
1098,94;  -10,580;    3,930;    4,810;-14,51000
1099,25;   -9,290;   -0,280;   -2,790;-9,01000
1099,56;   -9,640;    6,420;    7,060;-16,06000
1099,87;   -9,460;    3,310;   -1,420;-12,77000
1100,18;  -14,580;    6,090;    8,150;-20,67000

