xe-unfiltered
Integration time [ms]:   1,571
Averaging Nr. [scans]: 100
Smoothing Nr. [pixels]: 0
Data measured with spectrometer [name]: 1403062U1
Wave   ;Sample   ;Dark     ;Reference;Scope Corrected for Dark
[nm]   ;[counts] ;[counts] ;[counts] 

 176,36;   30,750;   -1,680;   -4,940;32,43000
 176,71;   25,020;    0,970;    1,200;24,05000
 177,05;   25,030;    1,880;    1,620;23,15000
 177,40;   28,720;    1,540;    1,160;27,18000
 177,74;   21,710;   -1,260;    1,630;22,97000
 178,09;   30,080;    1,980;    0,700;28,10000
 178,43;   25,280;   -0,420;   -2,880;25,70000
 178,78;   28,170;    0,770;    7,430;27,40000
 179,12;   28,580;    4,190;    2,350;24,39000
 179,47;   31,590;    0,330;   -1,290;31,26000
 179,81;   28,970;    5,060;    7,770;23,91000
 180,16;   26,190;    5,230;   -2,990;20,96000
 180,50;   28,440;    4,680;   -1,580;23,76000
 180,85;   28,700;   -1,360;   -0,790;30,06000
 181,19;   24,990;    2,540;   -3,310;22,45000
 181,54;   30,330;    2,570;   -0,550;27,76000
 181,88;   25,380;    4,730;   -6,480;20,65000
 182,23;   30,750;    3,980;   -3,500;26,77000
 182,57;   22,930;   -6,510;    0,010;29,44000
 182,92;   23,500;   -1,850;    1,600;25,35000
 183,26;   24,160;   -1,710;    6,460;25,87000
 183,61;   29,770;   -2,030;    5,600;31,80000
 183,95;   22,920;   -3,570;    0,620;26,49000
 184,30;   26,060;   -2,540;    2,620;28,60000
 184,64;   26,450;   -2,830;    0,860;29,28000
 184,99;   30,010;   -0,890;    1,700;30,90000
 185,33;   24,430;   -0,150;    1,640;24,58000
 185,68;   24,190;    7,170;   -2,140;17,02000
 186,02;   27,820;   -6,680;    8,470;34,50000
 186,37;   30,080;   -0,160;   -0,240;30,24000
 186,71;   25,460;    0,470;   -2,180;24,99000
 187,06;   28,910;    2,400;    3,950;26,51000
 187,40;   26,720;   -1,030;    3,110;27,75000
 187,75;   26,710;    1,610;    6,000;25,10000
 188,09;   26,150;   -0,430;    2,940;26,58000
 188,44;   21,090;    0,610;    6,360;20,48000
 188,78;   34,420;    4,770;   -2,530;29,65000
 189,13;   27,870;    3,820;    0,290;24,05000
 189,47;   26,620;   -3,790;    2,160;30,41000
 189,82;   28,700;    1,430;   -0,170;27,27000
 190,16;   37,000;    1,060;   -0,530;35,94000
 190,51;   26,800;   -0,130;   -2,300;26,93000
 190,85;   28,970;    3,490;   -3,190;25,48000
 191,20;   26,220;   -0,470;   -3,450;26,69000
 191,54;   35,180;    1,380;   -5,110;33,80000
 191,88;   28,420;   -2,520;    3,760;30,94000
 192,23;   27,080;   -1,560;   -3,410;28,64000
 192,57;   31,810;   -1,950;    8,440;33,76000
 192,92;   23,310;    0,490;   -3,170;22,82000
 193,26;   29,980;    1,130;    8,660;28,85000
 193,61;   28,930;    2,390;   -6,900;26,54000
 193,95;   39,390;    1,080;    0,280;38,31000
 194,30;   32,910;   -1,620;   -4,090;34,53000
 194,64;   32,170;   -1,570;    4,160;33,74000
 194,99;   32,620;    0,850;    2,080;31,77000
 195,33;   38,710;    3,030;   -0,800;35,68000
 195,68;   30,100;   -0,230;    0,700;30,33000
 196,02;   26,330;   -2,150;    5,190;28,48000
 196,37;   36,230;   -1,000;    1,300;37,23000
 196,71;   28,660;    2,780;    4,470;25,88000
 197,05;   24,870;    2,320;   -2,210;22,55000
 197,40;   26,380;    2,950;    3,920;23,43000
 197,74;   26,630;    2,460;   -1,110;24,17000
 198,09;   29,800;    0,250;    5,080;29,55000
 198,43;   29,950;    4,920;    2,110;25,03000
 198,78;   32,100;   -4,480;    1,580;36,58000
 199,12;   31,920;   -4,470;    0,300;36,39000
 199,47;   30,950;   -2,580;    4,730;33,53000
 199,81;   34,240;    2,270;    2,230;31,97000
 200,16;   29,690;   -2,680;   -2,050;32,37000
 200,50;   28,010;   -3,510;   -0,260;31,52000
 200,84;   35,280;    3,240;    3,170;32,04000
 201,19;   34,040;    1,760;    1,890;32,28000
 201,53;   33,720;   -1,180;   -2,770;34,90000
 201,88;   25,850;   -1,230;    4,320;27,08000
 202,22;   27,700;    0,470;    0,800;27,23000
 202,57;   32,050;   -4,050;    6,390;36,10000
 202,91;   25,840;   -0,600;    2,090;26,44000
 203,26;   30,250;    3,360;    1,290;26,89000
 203,60;   31,630;    1,750;    5,630;29,88000
 203,94;   31,000;    0,190;   -1,070;30,81000
 204,29;   32,860;    3,140;   -0,730;29,72000
 204,63;   34,760;    5,010;   -0,090;29,75000
 204,98;   29,250;   -4,500;    6,600;33,75000
 205,32;   34,450;    6,260;   -1,270;28,19000
 205,67;   23,590;    0,300;    4,650;23,29000
 206,01;   39,470;   -3,870;    2,660;43,34000
 206,36;   26,950;   -3,910;    7,150;30,86000
 206,70;   34,820;    0,840;    4,990;33,98000
 207,04;   36,400;   -8,930;    1,580;45,33000
 207,39;   34,660;   -9,930;   -2,780;44,59000
 207,73;   29,210;    5,020;    2,870;24,19000
 208,08;   36,240;   -2,250;    0,280;38,49000
 208,42;   29,560;   -3,960;    0,400;33,52000
 208,77;   33,070;   -6,680;    1,510;39,75000
 209,11;   36,090;   -1,400;    4,410;37,49000
 209,45;   35,270;   -1,610;   -6,000;36,88000
 209,80;   36,960;   -2,640;    2,210;39,60000
 210,14;   31,970;   -1,610;    2,850;33,58000
 210,49;   35,130;    6,300;    0,830;28,83000
 210,83;   34,190;    1,110;   -0,500;33,08000
 211,18;   31,340;   -0,550;    1,840;31,89000
 211,52;   35,140;   -7,530;   -2,050;42,67000
 211,86;   35,550;    1,350;   -0,760;34,20000
 212,21;   35,090;    1,580;   -0,850;33,51000
 212,55;   37,990;    1,260;    0,350;36,73000
 212,90;   34,010;   -1,840;    5,690;35,85000
 213,24;   38,110;   -5,320;   -0,200;43,43000
 213,59;   34,340;    3,110;    1,370;31,23000
 213,93;   38,080;    0,180;   -2,980;37,90000
 214,27;   34,950;    2,720;   -1,450;32,23000
 214,62;   35,390;    2,770;    4,640;32,62000
 214,96;   32,290;    5,600;    0,500;26,69000
 215,31;   38,010;   -0,510;    0,660;38,52000
 215,65;   37,160;   -3,300;    0,530;40,46000
 216,00;   34,700;    0,660;    3,700;34,04000
 216,34;   32,520;   -2,680;    7,630;35,20000
 216,68;   31,750;   -0,360;    2,550;32,11000
 217,03;   30,550;    1,730;   -2,950;28,82000
 217,37;   33,810;    1,830;    7,880;31,98000
 217,72;   28,900;   -1,150;   -3,170;30,05000
 218,06;   33,360;    3,880;    5,030;29,48000
 218,40;   38,270;    2,050;   -2,040;36,22000
 218,75;   32,210;   -2,330;    2,830;34,54000
 219,09;   33,510;   -2,310;    4,950;35,82000
 219,44;   36,520;    2,650;    1,680;33,87000
 219,78;   39,650;   -0,370;    0,300;40,02000
 220,12;   37,270;    0,020;   -2,360;37,25000
 220,47;   32,820;   -0,210;    0,160;33,03000
 220,81;   36,480;    1,770;    1,970;34,71000
 221,16;   34,890;    6,790;    2,430;28,10000
 221,50;   32,370;   -3,330;    0,030;35,70000
 221,84;   33,900;   -0,920;    4,400;34,82000
 222,19;   39,270;    2,190;   -1,310;37,08000
 222,53;   28,870;    0,080;    7,310;28,79000
 222,88;   41,560;   -0,380;    8,230;41,94000
 223,22;   33,390;    7,170;   -4,200;26,22000
 223,56;   34,510;    4,630;   11,460;29,88000
 223,91;   30,690;   -1,850;   -0,780;32,54000
 224,25;   40,450;    5,590;    2,120;34,86000
 224,60;   41,270;    0,510;   -1,480;40,76000
 224,94;   34,070;   -1,020;    3,330;35,09000
 225,28;   34,790;   -0,270;   -1,170;35,06000
 225,63;   35,590;   -6,880;    5,740;42,47000
 225,97;   37,380;   -2,360;    1,330;39,74000
 226,32;   35,430;   -4,330;   -0,260;39,76000
 226,66;   42,410;   -7,350;    5,090;49,76000
 227,00;   42,130;    0,790;    3,420;41,34000
 227,35;   29,120;   -0,040;   -2,020;29,16000
 227,69;   39,640;   -2,440;    1,910;42,08000
 228,04;   33,400;   -3,320;   -0,610;36,72000
 228,38;   32,890;   -6,930;   -5,470;39,82000
 228,72;   40,540;    4,010;   -3,900;36,53000
 229,07;   36,830;    1,090;    0,630;35,74000
 229,41;   30,740;    0,690;   -0,140;30,05000
 229,75;   34,180;    5,250;    4,380;28,93000
 230,10;   41,520;    1,150;   -0,170;40,37000
 230,44;   36,540;    3,190;    7,890;33,35000
 230,79;   33,620;   -2,320;   -0,360;35,94000
 231,13;   41,180;    0,500;    4,010;40,68000
 231,47;   40,490;    5,170;    3,080;35,32000
 231,82;   44,040;    4,750;    6,400;39,29000
 232,16;   35,000;    1,060;    1,390;33,94000
 232,50;   41,560;    1,020;    1,650;40,54000
 232,85;   39,320;   -2,000;   -2,240;41,32000
 233,19;   37,600;    0,280;    6,400;37,32000
 233,54;   40,930;   -1,900;    9,110;42,83000
 233,88;   45,320;    5,730;   -0,630;39,59000
 234,22;   32,180;    3,570;    3,200;28,61000
 234,57;   35,310;    1,000;   -0,350;34,31000
 234,91;   41,170;   -1,010;    3,130;42,18000
 235,25;   36,270;    0,820;    0,820;35,45000
 235,60;   37,870;    0,090;    4,420;37,78000
 235,94;   47,110;   -4,220;   -1,930;51,33000
 236,29;   42,900;   -6,810;   -3,820;49,71000
 236,63;   49,230;    1,680;   -0,440;47,55000
 236,97;   39,530;    3,160;    4,160;36,37000
 237,32;   40,780;    3,410;   -3,280;37,37000
 237,66;   40,670;    7,420;    7,650;33,25000
 238,00;   50,260;    1,770;    0,290;48,49000
 238,35;   49,540;   -2,610;   -7,850;52,15000
 238,69;   46,880;    5,740;   29,260;41,14000
 239,03;   47,410;   -0,120;   65,740;47,53000
 239,38;   51,020;   -2,220;    3,060;53,24000
 239,72;   48,580;   -3,180;    0,310;51,76000
 240,06;   46,850;   -2,940;    2,810;49,79000
 240,41;   57,760;    0,670;    0,290;57,09000
 240,75;   49,720;    5,070;    2,750;44,65000
 241,10;   65,630;   -7,380;    4,230;73,01000
 241,44;   65,480;    3,020;   -0,270;62,46000
 241,78;   54,380;   -6,130;    3,450;60,51000
 242,13;   58,580;   -3,590;   -2,120;62,17000
 242,47;   64,330;    4,880;   -4,250;59,45000
 242,81;   65,310;    2,220;    4,680;63,09000
 243,16;   70,140;   -1,210;    1,580;71,35000
 243,50;   64,120;    0,500;   -2,120;63,62000
 243,84;   71,490;   -0,710;   -1,390;72,20000
 244,19;   70,580;    5,840;    1,600;64,74000
 244,53;   61,900;    2,820;   -0,360;59,08000
 244,87;   71,860;    2,190;    6,880;69,67000
 245,22;   73,920;    0,520;    1,260;73,40000
 245,56;   81,830;   -1,040;   -5,670;82,87000
 245,90;   77,120;   -2,040;   -2,740;79,16000
 246,25;   75,530;   -0,790;    6,490;76,32000
 246,59;   87,010;    2,590;   -3,700;84,42000
 246,93;   88,980;   -2,460;    2,990;91,44000
 247,28;   88,960;    2,960;    6,300;86,00000
 247,62;   93,280;   -3,350;   -1,330;96,63000
 247,96;  103,360;   -1,370;    3,460;104,73000
 248,31;  109,340;    4,640;    0,160;104,70000
 248,65;  110,520;   -2,480;    3,570;113,00000
 248,99;  113,020;    2,980;    2,260;110,04000
 249,34;  121,760;    1,680;   -0,370;120,08000
 249,68;  129,410;   -2,100;   -2,150;131,51000
 250,02;  130,170;    0,800;    0,690;129,37000
 250,37;  133,770;   -3,820;    4,070;137,59000
 250,71;  132,140;    8,080;    0,790;124,06000
 251,05;  130,690;   -8,510;    0,850;139,20000
 251,40;  128,760;    0,870;    3,460;127,89000
 251,74;  125,180;    6,920;    1,420;118,26000
 252,08;  128,520;   -3,860;    1,190;132,38000
 252,43;  120,610;    4,350;    3,090;116,26000
 252,77;  129,220;   -3,840;   -0,850;133,06000
 253,11;  118,370;   -1,730;   -1,730;120,10000
 253,46;  118,560;    3,530;    3,910;115,03000
 253,80;  119,910;   -1,400;    7,110;121,31000
 254,14;  119,900;    3,490;   -3,160;116,41000
 254,49;  122,620;   -1,050;    0,370;123,67000
 254,83;  124,130;   -7,270;    6,060;131,40000
 255,17;  131,210;   -1,230;    0,870;132,44000
 255,52;  134,120;   -5,730;    3,320;139,85000
 255,86;  134,240;    0,010;    3,840;134,23000
 256,20;  146,180;   -0,670;    2,190;146,85000
 256,55;  161,660;    3,140;    6,800;158,52000
 256,89;  159,100;    1,680;   -0,420;157,42000
 257,23;  169,290;   -3,410;    4,740;172,70000
 257,57;  181,170;    3,540;    0,680;177,63000
 257,92;  199,290;    4,890;    9,660;194,40000
 258,26;  207,570;   -4,060;    9,410;211,63000
 258,60;  228,060;    2,480;    0,980;225,58000
 258,95;  244,390;    1,570;    1,980;242,82000
 259,29;  261,200;    3,670;    1,870;257,53000
 259,63;  282,550;   -4,430;    2,470;286,98000
 259,98;  305,330;   -2,210;    4,950;307,54000
 260,32;  338,440;    3,100;    3,060;335,34000
 260,66;  365,290;   -2,500;   -0,240;367,79000
 261,01;  404,010;    2,940;   -0,910;401,07000
 261,35;  441,670;   -3,890;    2,840;445,56000
 261,69;  471,150;   -2,560;    2,780;473,71000
 262,03;  513,680;   -0,190;    1,400;513,87000
 262,38;  524,520;    3,470;   -3,040;521,05000
 262,72;  568,750;    1,410;    1,950;567,34000
 263,06;  587,360;    0,100;    3,560;587,26000
 263,41;  600,010;   -1,350;    2,600;601,36000
 263,75;  605,870;   -5,040;    2,850;610,91000
 264,09;  614,960;   -4,180;   -0,340;619,14000
 264,44;  614,100;    3,310;   -0,250;610,79000
 264,78;  588,230;   -1,850;   -1,930;590,08000
 265,12;  585,510;    4,960;    5,230;580,55000
 265,46;  589,330;    0,600;    2,600;588,73000
 265,81;  561,400;    3,190;    1,280;558,21000
 266,15;  548,950;    4,770;    4,320;544,18000
 266,49;  539,080;    5,660;    3,370;533,42000
 266,84;  536,110;    0,280;    2,340;535,83000
 267,18;  536,590;   -6,410;    0,120;543,00000
 267,52;  532,200;    1,350;   -0,950;530,85000
 267,86;  536,540;   -1,210;    0,400;537,75000
 268,21;  533,240;   -1,260;    4,770;534,50000
 268,55;  548,080;   -1,130;    1,950;549,21000
 268,89;  550,390;    2,400;    8,760;547,99000
 269,24;  570,260;   -1,920;   -1,610;572,18000
 269,58;  583,530;    5,420;    1,950;578,11000
 269,92;  606,750;    2,840;   -3,810;603,91000
 270,26;  630,460;    5,060;    5,370;625,40000
 270,61;  651,080;   -0,230;    2,330;651,31000
 270,95;  709,130;    6,130;    2,940;703,00000
 271,29;  733,120;   -1,890;   -4,650;735,01000
 271,64;  767,440;   -4,970;   -0,820;772,41000
 271,98;  807,250;    3,740;    5,320;803,51000
 272,32;  851,060;    0,780;    2,520;850,28000
 272,66;  912,310;   -4,700;    3,640;917,01000
 273,01;  972,810;   -4,680;    3,890;977,49000
 273,35; 1011,730;   -8,380;   -2,080;1020,11000
 273,69; 1057,280;   -5,160;    7,650;1062,44000
 274,03; 1148,670;   -0,120;   -0,080;1148,79000
 274,38; 1188,270;   -0,040;    2,800;1188,31000
 274,72; 1272,200;   -2,720;    0,930;1274,92000
 275,06; 1318,340;   -0,860;    4,260;1319,20000
 275,40; 1407,290;   -4,350;    2,190;1411,64000
 275,75; 1415,310;   -2,680;   -1,670;1417,99000
 276,09; 1488,700;   -1,000;    2,750;1489,70000
 276,43; 1506,970;    2,560;    3,420;1504,41000
 276,78; 1550,320;   -0,680;    3,970;1551,00000
 277,12; 1564,190;   -2,700;    4,080;1566,89000
 277,46; 1627,140;    4,040;   -1,400;1623,10000
 277,80; 1614,820;   -3,990;    2,660;1618,81000
 278,15; 1611,070;    0,790;    0,990;1610,28000
 278,49; 1622,280;    2,880;    3,910;1619,40000
 278,83; 1589,000;    1,330;   -0,830;1587,67000
 279,17; 1597,760;    2,210;    7,910;1595,55000
 279,52; 1592,220;   -7,710;    0,670;1599,93000
 279,86; 1548,740;   -1,780;    3,730;1550,52000
 280,20; 1536,170;   -0,930;   -0,050;1537,10000
 280,54; 1536,260;    0,750;    4,110;1535,51000
 280,89; 1543,770;    2,780;    2,930;1540,99000
 281,23; 1532,010;   -2,950;    7,110;1534,96000
 281,57; 1542,920;   -3,420;    3,900;1546,34000
 281,91; 1541,500;    3,190;    9,620;1538,31000
 282,26; 1523,440;    0,600;   -0,770;1522,84000
 282,60; 1535,870;    0,530;    3,260;1535,34000
 282,94; 1551,680;   -4,930;   -6,700;1556,61000
 283,28; 1529,130;    0,510;    8,220;1528,62000
 283,63; 1567,300;   -1,720;    3,300;1569,02000
 283,97; 1571,700;    4,800;   -2,370;1566,90000
 284,31; 1565,590;   -2,080;    1,490;1567,67000
 284,65; 1607,550;   -1,330;    0,930;1608,88000
 285,00; 1615,730;   -0,720;    0,170;1616,45000
 285,34; 1643,360;   -5,460;    2,250;1648,82000
 285,68; 1696,420;    5,930;    4,600;1690,49000
 286,02; 1689,860;    2,050;    2,930;1687,81000
 286,37; 1725,680;    1,840;   -2,100;1723,84000
 286,71; 1738,270;    0,130;    9,880;1738,14000
 287,05; 1806,740;    4,750;    0,770;1801,99000
 287,39; 1822,440;   -2,940;    3,340;1825,38000
 287,73; 1858,270;    1,660;   -0,150;1856,61000
 288,08; 1870,940;    8,490;    4,200;1862,45000
 288,42; 1938,170;   -2,840;   -0,810;1941,01000
 288,76; 1974,860;   -0,210;    1,980;1975,07000
 289,10; 1994,280;   -1,230;   -2,180;1995,51000
 289,45; 2050,770;    1,800;    2,290;2048,97000
 289,79; 2098,290;    0,110;    2,270;2098,18000
 290,13; 2163,810;   -2,760;    7,880;2166,57000
 290,47; 2254,020;    0,320;   -1,950;2253,70000
 290,82; 2204,850;    2,800;    3,070;2202,05000
 291,16; 2307,530;    2,370;   -1,830;2305,16000
 291,50; 2372,640;   -1,740;   -0,810;2374,38000
 291,84; 2442,400;    6,150;   -1,240;2436,25000
 292,18; 2457,910;    2,720;    7,510;2455,19000
 292,53; 2552,010;   -3,380;    2,270;2555,39000
 292,87; 2645,630;   -8,210;    6,240;2653,84000
 293,21; 2725,110;   -6,380;   -3,400;2731,49000
 293,55; 2798,410;    0,060;    7,800;2798,35000
 293,90; 2918,260;    2,300;    1,580;2915,96000
 294,24; 2961,190;    0,430;    2,360;2960,76000
 294,58; 3097,080;    4,300;   -2,350;3092,78000
 294,92; 3219,660;   -1,710;    4,480;3221,37000
 295,26; 3289,420;   -3,490;   -0,060;3292,91000
 295,61; 3357,900;    4,230;    2,590;3353,67000
 295,95; 3445,230;    4,020;    2,900;3441,21000
 296,29; 3541,350;    9,360;    2,790;3531,99000
 296,63; 3706,940;    3,120;    1,350;3703,82000
 296,97; 3770,780;    0,130;    3,880;3770,65000
 297,32; 3922,490;   -4,260;   -4,280;3926,75000
 297,66; 3994,870;    4,560;   -0,620;3990,31000
 298,00; 4056,810;    1,400;    3,450;4055,41000
 298,34; 4115,100;   -2,880;    0,800;4117,98000
 298,69; 4255,000;    3,150;    2,400;4251,85000
 299,03; 4239,080;    0,610;    1,820;4238,47000
 299,37; 4373,090;   -3,290;   -0,940;4376,38000
 299,71; 4375,480;    0,480;   -1,460;4375,00000
 300,05; 4451,230;    1,360;   -0,590;4449,87000
 300,40; 4439,710;   -2,810;    5,780;4442,52000
 300,74; 4514,660;    0,620;    3,080;4514,04000
 301,08; 4595,660;   -2,410;    9,750;4598,07000
 301,42; 4559,430;    0,030;    0,430;4559,40000
 301,76; 4544,540;   -0,040;    3,560;4544,58000
 302,11; 4576,050;    2,500;    1,560;4573,55000
 302,45; 4576,860;    6,460;    3,060;4570,40000
 302,79; 4572,810;    7,480;   -0,070;4565,33000
 303,13; 4576,620;   -1,000;    0,920;4577,62000
 303,47; 4476,870;   -4,150;    2,590;4481,02000
 303,81; 4487,390;   -0,860;    6,370;4488,25000
 304,16; 4501,460;   -0,610;    0,950;4502,07000
 304,50; 4485,650;   -5,660;    5,220;4491,31000
 304,84; 4470,080;    6,440;    3,500;4463,64000
 305,18; 4366,890;   -1,250;    3,990;4368,14000
 305,52; 4408,410;    2,210;    0,240;4406,20000
 305,87; 4404,150;    0,610;   -3,520;4403,54000
 306,21; 4337,930;   -3,150;   -4,610;4341,08000
 306,55; 4429,170;   -1,600;    2,670;4430,77000
 306,89; 4369,910;    1,130;    2,350;4368,78000
 307,23; 4378,100;    1,720;    1,320;4376,38000
 307,58; 4248,450;   -0,810;    1,880;4249,26000
 307,92; 4283,440;   -0,410;    4,640;4283,85000
 308,26; 4321,700;   -6,760;   -1,550;4328,46000
 308,60; 4261,870;   -4,440;    1,660;4266,31000
 308,94; 4184,700;   -2,500;   -0,860;4187,20000
 309,28; 4256,740;    4,170;    3,500;4252,57000
 309,63; 4157,910;   -3,270;   -2,560;4161,18000
 309,97; 4194,210;   -2,380;   10,570;4196,59000
 310,31; 4143,910;    1,040;   -0,100;4142,87000
 310,65; 4072,730;   -0,430;    3,820;4073,16000
 310,99; 4143,970;   -0,530;    2,240;4144,50000
 311,33; 3972,220;   -3,690;    2,420;3975,91000
 311,68; 4061,260;   -1,170;    0,600;4062,43000
 312,02; 3905,720;    1,480;  -15,330;3904,24000
 312,36; 3884,930;   -1,200;   23,440;3886,13000
 312,70; 3881,150;    0,750;   61,440;3880,40000
 313,04; 3830,680;    1,470;    1,810;3829,21000
 313,38; 3664,810;   -5,760;   -3,880;3670,57000
 313,73; 3671,980;   -5,440;   -2,470;3677,42000
 314,07; 3608,280;    0,820;    5,190;3607,46000
 314,41; 3578,880;    1,040;    4,040;3577,84000
 314,75; 3502,930;    4,640;    5,810;3498,29000
 315,09; 3442,320;    0,590;    1,100;3441,73000
 315,43; 3336,550;    3,330;    5,490;3333,22000
 315,78; 3293,780;   -3,260;    0,860;3297,04000
 316,12; 3236,980;    5,460;    5,920;3231,52000
 316,46; 3226,140;    3,990;    5,510;3222,15000
 316,80; 3178,560;   -0,960;    1,790;3179,52000
 317,14; 3081,320;   -8,650;    3,890;3089,97000
 317,48; 3060,690;   -3,810;    3,190;3064,50000
 317,83; 3026,670;    2,450;   -3,050;3024,22000
 318,17; 3016,840;   -1,790;    1,620;3018,63000
 318,51; 2923,560;    3,310;    1,140;2920,25000
 318,85; 2861,770;   -3,960;   -1,100;2865,73000
 319,19; 2934,450;   -3,320;   -3,990;2937,77000
 319,53; 2817,130;   -0,780;    9,450;2817,91000
 319,87; 2810,030;    1,810;   -3,650;2808,22000
 320,22; 2766,910;    4,530;    8,080;2762,38000
 320,56; 2771,500;   -7,350;    3,190;2778,85000
 320,90; 2776,100;    1,730;    7,300;2774,37000
 321,24; 2782,230;   -2,710;    8,820;2784,94000
 321,58; 2787,900;    7,080;   -2,580;2780,82000
 321,92; 2740,870;   -3,300;   -1,490;2744,17000
 322,26; 2741,450;    6,770;   -3,760;2734,68000
 322,61; 2673,340;   -2,430;    3,520;2675,77000
 322,95; 2733,930;    2,560;    0,190;2731,37000
 323,29; 2726,410;   -4,920;    2,140;2731,33000
 323,63; 2712,000;    0,880;    1,200;2711,12000
 323,97; 2699,390;    5,660;    2,870;2693,73000
 324,31; 2710,360;   -3,270;    0,730;2713,63000
 324,65; 2778,680;    3,730;    5,680;2774,95000
 325,00; 2726,230;    3,470;    2,660;2722,76000
 325,34; 2801,450;   -4,250;   -0,430;2805,70000
 325,68; 2753,320;    2,130;   -0,890;2751,19000
 326,02; 2817,830;    1,420;    4,820;2816,41000
 326,36; 2856,260;    0,500;    3,430;2855,76000
 326,70; 2925,670;    7,770;   -1,680;2917,90000
 327,04; 2973,090;    1,000;    4,730;2972,09000
 327,38; 3000,120;    1,350;    2,400;2998,77000
 327,73; 3070,180;    6,200;    4,930;3063,98000
 328,07; 3055,170;   -1,690;    3,290;3056,86000
 328,41; 3144,090;   -3,770;    1,050;3147,86000
 328,75; 3261,180;    8,640;    1,850;3252,54000
 329,09; 3257,440;   -5,820;    1,130;3263,26000
 329,43; 3361,790;    5,690;    0,440;3356,10000
 329,77; 3396,280;   -2,590;    3,080;3398,87000
 330,11; 3489,640;   -0,790;   -2,830;3490,43000
 330,46; 3572,720;   -1,830;    3,940;3574,55000
 330,80; 3683,060;   -4,710;   -1,490;3687,77000
 331,14; 3784,080;    1,780;    2,840;3782,30000
 331,48; 3885,700;   -3,020;    1,950;3888,72000
 331,82; 4001,410;    3,680;    5,330;3997,73000
 332,16; 4138,620;    3,190;   -5,490;4135,43000
 332,50; 4285,120;   -3,640;    0,370;4288,76000
 332,84; 4411,990;   -3,480;    4,550;4415,47000
 333,18; 4552,900;   -0,850;    3,170;4553,75000
 333,53; 4650,340;   -0,010;   -1,670;4650,35000
 333,87; 4872,350;    0,240;    4,960;4872,11000
 334,21; 4991,170;   -2,880;    4,440;4994,05000
 334,55; 5103,280;   -4,410;    2,210;5107,69000
 334,89; 5373,340;   -4,070;    2,760;5377,41000
 335,23; 5572,930;    4,300;   -0,890;5568,63000
 335,57; 5710,600;   -2,270;    2,290;5712,87000
 335,91; 5998,930;    3,290;    4,710;5995,64000
 336,25; 6055,780;   -2,780;    4,970;6058,56000
 336,60; 6262,090;    3,700;    1,540;6258,39000
 336,94; 6550,380;   -4,860;   -0,280;6555,24000
 337,28; 6890,640;    9,840;    2,850;6880,80000
 337,62; 7019,500;    0,810;   -0,390;7018,69000
 337,96; 7246,390;   -6,070;    2,040;7252,46000
 338,30; 7590,440;    3,380;    1,880;7587,06000
 338,64; 7796,200;   -5,300;    6,570;7801,50000
 338,98; 7897,500;   -7,810;   -2,000;7905,31000
 339,32; 8514,270;    3,680;    0,460;8510,59000
 339,66; 8403,160;    3,330;   -0,800;8399,83000
 340,01; 8743,060;    1,530;    1,760;8741,53000
 340,35; 9010,360;    2,080;   -0,530;9008,28000
 340,69; 9302,000;   -4,870;    3,300;9306,87000
 341,03; 9429,020;    2,890;    2,970;9426,13000
 341,37; 9745,220;   -6,630;    6,070;9751,85000
 341,71; 9959,150;   -7,390;   -3,260;9966,54000
 342,05;10166,940;    2,170;    2,520;10164,77000
 342,39;10584,970;    0,590;    1,510;10584,38000
 342,73;10573,020;   -2,950;    2,250;10575,97000
 343,07;10808,520;   -8,720;   -2,210;10817,24000
 343,41;11142,850;    3,490;    1,990;11139,36000
 343,75;11549,050;    0,740;   -5,070;11548,31000
 344,10;11543,690;   -3,520;   -0,490;11547,21000
 344,44;11816,570;   -5,010;    4,160;11821,58000
 344,78;11719,100;   -0,230;    3,320;11719,33000
 345,12;12185,250;    4,210;   -2,100;12181,04000
 345,46;12351,690;    2,200;    3,260;12349,49000
 345,80;12291,760;    0,420;    4,200;12291,34000
 346,14;12634,320;    4,520;    7,400;12629,80000
 346,48;12605,910;    3,980;    7,670;12601,93000
 346,82;12956,170;    2,730;    2,900;12953,44000
 347,16;13026,920;   -0,470;   -0,380;13027,39000
 347,50;12869,940;   -3,890;    4,620;12873,83000
 347,84;13190,590;   -0,660;   -0,340;13191,25000
 348,18;13146,260;    6,290;    0,100;13139,97000
 348,53;13085,300;   -0,660;    7,220;13085,96000
 348,87;13318,700;   -0,620;    4,640;13319,32000
 349,21;13406,670;   -1,280;    1,010;13407,95000
 349,55;13339,140;   -0,130;   -1,310;13339,27000
 349,89;13311,050;    2,840;    3,290;13308,21000
 350,23;13346,650;    1,050;   -0,650;13345,60000
 350,57;13799,760;    5,770;    1,280;13793,99000
 350,91;13362,240;    6,230;    2,260;13356,01000
 351,25;13505,590;   -0,350;    2,890;13505,94000
 351,59;13472,810;    0,170;    8,760;13472,64000
 351,93;13349,660;    0,220;    3,960;13349,44000
 352,27;13262,390;    4,960;    5,210;13257,43000
 352,61;13526,380;   -1,330;    2,680;13527,71000
 352,95;13264,780;    2,360;    7,500;13262,42000
 353,29;13372,100;    2,710;    0,070;13369,39000
 353,63;13359,730;    0,880;   -3,240;13358,85000
 353,98;13238,020;   -3,380;   -1,200;13241,40000
 354,32;13181,010;    0,840;   -3,600;13180,17000
 354,66;13093,980;    3,110;   -0,790;13090,87000
 355,00;13193,230;   -1,260;    4,110;13194,49000
 355,34;12811,360;    0,850;   -0,090;12810,51000
 355,68;12975,300;    1,590;   -3,200;12973,71000
 356,02;12728,820;   -0,990;   -0,450;12729,81000
 356,36;12705,350;   -0,490;    9,920;12705,84000
 356,70;12661,230;   -2,210;    3,200;12663,44000
 357,04;12602,860;    1,480;    4,710;12601,38000
 357,38;12328,130;   -2,860;    0,020;12330,99000
 357,72;12564,220;    1,800;    5,560;12562,42000
 358,06;12496,340;    1,600;   -2,100;12494,74000
 358,40;12302,810;    0,860;   -2,150;12301,95000
 358,74;12316,480;   -0,940;    4,930;12317,42000
 359,08;12274,910;    7,070;    3,100;12267,84000
 359,42;12115,760;   -3,670;    0,930;12119,43000
 359,76;12485,160;    1,740;    7,260;12483,42000
 360,10;12242,450;    0,780;   -0,030;12241,67000
 360,44;12076,200;    6,370;   -0,080;12069,83000
 360,78;12053,290;   -0,730;   -0,890;12054,02000
 361,12;12157,110;    2,920;    2,740;12154,19000
 361,46;12019,760;   -0,940;    2,110;12020,70000
 361,80;11979,110;    8,340;   -1,090;11970,77000
 362,15;11882,810;   -3,410;   -2,300;11886,22000
 362,49;12113,670;    3,910;    3,670;12109,76000
 362,83;12098,170;    1,410;    1,900;12096,76000
 363,17;12316,920;    1,950;    6,090;12314,97000
 363,51;12105,150;   -1,270;   -0,830;12106,42000
 363,85;11861,710;   -4,550;    2,930;11866,26000
 364,19;12228,950;   -1,360;    3,810;12230,31000
 364,53;12028,020;   -2,340;   -3,340;12030,36000
 364,87;12203,000;    4,970;    4,170;12198,03000
 365,21;12297,950;    3,080;    1,720;12294,87000
 365,55;12615,800;    4,420;    0,380;12611,38000
 365,89;12674,640;    5,050;    8,710;12669,59000
 366,23;12141,680;   -5,340;    4,580;12147,02000
 366,57;12575,050;    1,700;    5,580;12573,35000
 366,91;12466,210;   -0,730;   -0,610;12466,94000
 367,25;12458,120;    2,350;    2,390;12455,77000
 367,59;12859,820;   -0,090;    1,360;12859,91000
 367,93;13044,260;    3,250;    2,410;13041,01000
 368,27;12814,810;   -1,270;   -2,920;12816,08000
 368,61;12939,840;    0,070;    2,710;12939,77000
 368,95;13221,340;   -0,770;    3,060;13222,11000
 369,29;13137,520;   -6,140;    1,940;13143,66000
 369,63;13320,840;   -6,110;   -4,530;13326,95000
 369,97;14012,850;   -1,200;    2,720;14014,05000
 370,31;13795,060;   -1,470;    2,380;13796,53000
 370,65;14082,910;   -2,870;    6,590;14085,78000
 370,99;13880,140;    7,260;    3,990;13872,88000
 371,33;13897,300;   -3,110;   -2,590;13900,41000
 371,67;14264,270;   -0,770;    2,270;14265,04000
 372,01;14681,830;    0,520;    4,790;14681,31000
 372,35;14680,610;   -1,500;    3,510;14682,11000
 372,69;14676,880;    0,210;    8,190;14676,67000
 373,03;14410,440;    2,140;    0,530;14408,30000
 373,37;15025,300;   -1,650;   -4,260;15026,95000
 373,71;15099,390;   -7,320;   -6,870;15106,71000
 374,05;15415,890;    2,410;    5,720;15413,48000
 374,39;15689,990;   -3,280;    5,190;15693,27000
 374,73;15144,140;    7,940;    4,230;15136,20000
 375,07;15804,110;   -3,770;    5,730;15807,88000
 375,41;15373,390;    5,290;    6,040;15368,10000
 375,75;15409,530;   -1,460;   -1,440;15410,99000
 376,09;15994,540;    3,550;    2,410;15990,99000
 376,43;16097,000;    1,080;   -5,140;16095,92000
 376,77;16414,550;    0,980;    2,020;16413,57000
 377,11;16449,080;   -2,040;    2,730;16451,12000
 377,45;16638,890;   10,360;    1,040;16628,53000
 377,79;16567,540;   -1,730;   -7,090;16569,27000
 378,13;17314,950;   -5,750;   10,500;17320,70000
 378,47;16895,570;   -4,880;   -0,100;16900,45000
 378,81;16763,740;    1,730;   -2,430;16762,01000
 379,15;17485,720;   -1,100;    4,630;17486,82000
 379,49;17288,250;    1,770;    7,300;17286,48000
 379,83;17206,270;   -3,150;   -3,710;17209,42000
 380,17;17069,050;   -3,150;    1,040;17072,20000
 380,51;17594,550;   -5,820;    5,750;17600,37000
 380,85;17336,410;    1,240;   -1,870;17335,17000
 381,19;17761,310;   -2,950;   -2,690;17764,26000
 381,53;17219,810;    3,660;    0,410;17216,15000
 381,87;17013,470;   -0,310;    2,200;17013,78000
 382,21;17072,930;    0,090;    3,600;17072,84000
 382,55;17905,940;   -5,440;    6,140;17911,38000
 382,89;17305,860;    2,260;    4,530;17303,60000
 383,23;17249,490;    2,600;   -0,420;17246,89000
 383,56;17051,270;    1,270;   -2,320;17050,00000
 383,90;17411,610;   -2,870;    0,330;17414,48000
 384,24;17653,700;    5,170;    1,240;17648,53000
 384,58;17069,460;   -0,290;    3,450;17069,75000
 384,92;17312,030;    0,230;    2,060;17311,80000
 385,26;16810,530;   -1,770;  -11,440;16812,30000
 385,60;17217,730;    0,920;   33,870;17216,81000
 385,94;17108,660;    3,300;   59,610;17105,36000
 386,28;16777,980;    1,030;   -1,900;16776,95000
 386,62;16544,730;    0,750;    7,620;16543,98000
 386,96;17234,560;    2,000;    1,740;17232,56000
 387,30;16739,810;   -3,240;   -0,690;16743,05000
 387,64;15873,090;   -0,240;    9,570;15873,33000
 387,98;16506,000;   -4,630;   -1,160;16510,63000
 388,32;16131,100;    2,800;    3,260;16128,30000
 388,66;16995,500;   -0,460;    2,420;16995,96000
 389,00;15775,140;   -4,450;    4,520;15779,59000
 389,34;16286,980;    1,450;   -0,240;16285,53000
 389,68;15547,320;    8,950;    3,370;15538,37000
 390,02;16537,570;   -0,620;    0,880;16538,19000
 390,36;16591,010;   -0,920;    4,370;16591,93000
 390,70;16455,220;    5,430;   -2,130;16449,79000
 391,04;15918,550;    0,060;    4,320;15918,49000
 391,38;16073,670;   -2,710;    0,090;16076,38000
 391,71;16531,330;   -0,460;    2,280;16531,79000
 392,05;16375,970;    6,440;    5,720;16369,53000
 392,39;16045,040;   -1,510;    1,990;16046,55000
 392,73;16704,710;    4,320;   -0,370;16700,39000
 393,07;15938,390;   -1,700;    2,500;15940,09000
 393,41;16817,290;    0,930;    0,940;16816,36000
 393,75;16641,610;    3,710;   -2,340;16637,90000
 394,09;17499,940;   -2,470;    3,860;17502,41000
 394,43;17564,860;    6,110;    1,470;17558,75000
 394,77;17913,870;    5,010;   -5,040;17908,86000
 395,11;18614,900;   -0,480;   -1,530;18615,38000
 395,45;19858,080;    0,350;    0,150;19857,73000
 395,79;19219,710;   -4,350;    8,430;19224,06000
 396,13;20294,890;    3,740;    2,220;20291,15000
 396,47;20951,960;    5,250;    2,580;20946,71000
 396,81;20233,600;   -5,390;    4,350;20238,99000
 397,14;20217,580;    2,220;    4,250;20215,36000
 397,48;20108,930;    6,790;    1,190;20102,14000
 397,82;19780,070;   -5,900;    4,150;19785,97000
 398,16;19035,120;   -2,980;    4,190;19038,10000
 398,50;19088,840;    2,410;    7,140;19086,43000
 398,84;18158,740;    1,910;   -0,610;18156,83000
 399,18;18488,850;    1,580;   -1,870;18487,27000
 399,52;18296,760;    5,840;    0,490;18290,92000
 399,86;18839,470;    7,170;    1,400;18832,30000
 400,20;18913,960;    1,160;   -3,620;18912,80000
 400,54;18440,000;   -1,570;    2,300;18441,57000
 400,88;19769,670;    7,200;   -4,160;19762,47000
 401,22;18464,720;    3,940;   -0,530;18460,78000
 401,55;19219,770;    0,130;   -3,210;19219,64000
 401,89;18996,290;    5,430;    8,670;18990,86000
 402,23;18540,340;   -3,120;    6,130;18543,46000
 402,57;18521,220;    4,220;    4,770;18517,00000
 402,91;18909,720;   -3,980;    1,650;18913,70000
 403,25;18967,280;    1,650;    3,690;18965,63000
 403,59;18844,030;    2,620;    1,960;18841,41000
 403,93;20515,840;    1,810;    7,590;20514,03000
 404,27;20003,810;   -1,860;   -1,950;20005,67000
 404,61;19973,590;    1,350;   -0,370;19972,24000
 404,95;20077,490;    3,580;    0,380;20073,91000
 405,28;20764,170;    1,340;    8,580;20762,83000
 405,62;20380,120;    8,000;    1,890;20372,12000
 405,96;21213,770;    3,450;    2,710;21210,32000
 406,30;21483,210;    2,330;   -4,150;21480,88000
 406,64;20230,070;   -4,310;    1,360;20234,38000
 406,98;20802,900;    5,570;   -1,920;20797,33000
 407,32;19876,190;    5,730;    1,550;19870,46000
 407,66;21255,130;   -3,200;    3,360;21258,33000
 408,00;21033,900;   -0,840;    1,610;21034,74000
 408,34;20027,260;    4,650;   -6,670;20022,61000
 408,67;20259,540;    1,410;   -1,990;20258,13000
 409,01;21522,290;    0,500;    2,160;21521,79000
 409,35;20388,240;    1,880;    8,550;20386,36000
 409,69;20513,160;    1,200;    3,070;20511,96000
 410,03;20873,610;    0,820;   -1,620;20872,79000
 410,37;21607,990;    3,430;   -5,310;21604,56000
 410,71;20562,120;   -1,260;    2,520;20563,38000
 411,05;22464,570;   -1,680;    3,940;22466,25000
 411,39;22067,100;    2,900;    6,160;22064,20000
 411,72;21039,690;   -6,390;    0,630;21046,08000
 412,06;20832,860;    3,600;    5,330;20829,26000
 412,40;22595,130;   -5,490;    3,100;22600,62000
 412,74;22242,320;    0,890;    0,490;22241,43000
 413,08;22302,790;   -3,090;    0,910;22305,88000
 413,42;22188,540;    6,680;    5,270;22181,86000
 413,76;22153,620;   -2,850;    3,260;22156,47000
 414,10;21506,850;    0,820;    4,470;21506,03000
 414,44;20798,990;   -1,740;   -4,520;20800,73000
 414,77;21932,580;   -1,290;   -3,320;21933,87000
 415,11;22244,740;    3,010;    1,630;22241,73000
 415,45;23332,900;    0,020;    6,710;23332,88000
 415,79;20977,910;   -5,060;   -2,010;20982,97000
 416,13;20596,730;   -2,480;    7,230;20599,21000
 416,47;20806,250;    0,020;   -1,380;20806,23000
 416,81;21096,720;    2,000;    4,880;21094,72000
 417,15;20591,600;    4,150;    8,810;20587,45000
 417,48;21718,640;    2,970;    7,260;21715,67000
 417,82;22517,750;   -3,890;    5,450;22521,64000
 418,16;21636,180;   -1,670;   -1,950;21637,85000
 418,50;23163,780;    2,840;   -3,870;23160,94000
 418,84;23139,850;    0,680;    4,950;23139,17000
 419,18;23530,250;   -3,650;   -5,380;23533,90000
 419,52;22324,650;    2,210;    3,310;22322,44000
 419,85;22890,310;   -0,110;   -1,450;22890,42000
 420,19;22214,130;   -1,650;    3,320;22215,78000
 420,53;21583,770;    3,870;    1,230;21579,90000
 420,87;21376,990;   -3,560;    4,470;21380,55000
 421,21;22095,900;   -4,880;    8,320;22100,78000
 421,55;21885,700;    3,060;    1,960;21882,64000
 421,89;20978,650;    1,520;   -3,940;20977,13000
 422,22;21193,240;    5,510;    4,640;21187,73000
 422,56;21227,510;    4,830;    0,050;21222,68000
 422,90;20634,830;    1,450;    7,810;20633,38000
 423,24;21340,630;    1,210;    0,360;21339,42000
 423,58;19544,610;   -1,480;    7,660;19546,09000
 423,92;22529,370;    0,900;   -1,020;22528,47000
 424,26;21966,990;    1,610;    0,610;21965,38000
 424,59;21984,270;    0,530;   -2,350;21983,74000
 424,93;22249,130;    4,360;    3,240;22244,77000
 425,27;20828,730;    7,910;    2,000;20820,82000
 425,61;21077,560;    0,790;    1,440;21076,77000
 425,95;20866,040;    2,850;    0,380;20863,19000
 426,29;20711,960;    2,160;    0,440;20709,80000
 426,62;22328,270;   -2,320;    9,480;22330,59000
 426,96;21084,770;   -0,200;    1,960;21084,97000
 427,30;21728,520;    1,050;   -3,270;21727,47000
 427,64;21515,780;   -3,610;    1,560;21519,39000
 427,98;20699,280;    0,100;    4,510;20699,18000
 428,32;21297,540;   -1,900;    3,620;21299,44000
 428,65;21574,870;    5,850;    0,270;21569,02000
 428,99;22906,270;    5,980;    2,990;22900,29000
 429,33;20606,740;   -0,520;    1,180;20607,26000
 429,67;20269,260;   -1,540;    5,380;20270,80000
 430,01;21588,190;   -3,330;   -0,520;21591,52000
 430,35;22075,840;    1,860;    4,970;22073,98000
 430,68;22674,210;   -5,700;   -0,330;22679,91000
 431,02;20870,520;    1,500;    4,850;20869,02000
 431,36;23106,280;    2,090;    1,100;23104,19000
 431,70;21838,580;   -0,770;    5,090;21839,35000
 432,04;21629,080;   -1,590;   -1,580;21630,67000
 432,38;22917,020;    2,930;    5,880;22914,09000
 432,71;23289,240;    3,220;    3,300;23286,02000
 433,05;22230,250;   -1,990;    4,190;22232,24000
 433,39;21629,990;   -5,550;    0,230;21635,54000
 433,73;22974,430;   -2,540;   -5,160;22976,97000
 434,07;22786,310;   -4,710;    0,870;22791,02000
 434,41;22513,790;   -1,600;    3,120;22515,39000
 434,74;22231,880;   -2,430;   -3,120;22234,31000
 435,08;23295,050;    5,760;    3,140;23289,29000
 435,42;24369,570;    1,060;   -0,680;24368,51000
 435,76;23501,440;    2,720;    7,110;23498,72000
 436,10;24212,010;    1,060;   -1,600;24210,95000
 436,43;23876,050;    3,450;   -3,020;23872,60000
 436,77;24274,240;    0,140;    5,450;24274,10000
 437,11;25764,150;    6,420;    2,250;25757,73000
 437,45;25193,100;    0,690;    5,160;25192,41000
 437,79;24366,480;    1,650;    1,970;24364,83000
 438,12;25134,410;   -6,420;   -2,740;25140,83000
 438,46;26052,330;   -1,500;    1,690;26053,83000
 438,80;24951,060;   -0,890;   -2,840;24951,95000
 439,14;24219,830;    3,700;   -1,260;24216,13000
 439,48;26055,560;    7,710;    1,780;26047,85000
 439,81;24520,800;    6,530;   -2,440;24514,27000
 440,15;24230,680;    3,950;   -0,800;24226,73000
 440,49;23579,470;   -3,070;    6,490;23582,54000
 440,83;23858,030;   -0,940;   -2,880;23858,97000
 441,17;24603,490;    2,230;    1,020;24601,26000
 441,50;25480,820;    4,820;    6,310;25476,00000
 441,84;24577,100;    0,640;    2,470;24576,46000
 442,18;24213,010;    2,070;    2,490;24210,94000
 442,52;24108,220;   -1,020;    0,850;24109,24000
 442,86;23114,560;    7,180;    2,850;23107,38000
 443,19;23731,660;   -2,600;    3,530;23734,26000
 443,53;26117,220;    2,000;    3,990;26115,22000
 443,87;24664,540;    1,220;    0,620;24663,32000
 444,21;23201,440;   -0,280;   -0,190;23201,72000
 444,55;22486,760;    2,850;   -1,810;22483,91000
 444,88;24260,550;   -4,440;    6,350;24264,99000
 445,22;24268,080;    1,380;    3,220;24266,70000
 445,56;23542,520;    1,840;    1,360;23540,68000
 445,90;22168,430;   -1,260;    6,110;22169,69000
 446,23;21938,100;    4,800;   -4,600;21933,30000
 446,57;21785,220;    4,790;   -3,300;21780,43000
 446,91;22191,290;   -0,250;    3,300;22191,54000
 447,25;22384,260;   -4,410;   -3,760;22388,67000
 447,59;22086,870;    7,690;   -1,610;22079,18000
 447,92;22936,550;    5,830;   -1,410;22930,72000
 448,26;23630,150;    1,030;    0,750;23629,12000
 448,60;23619,150;   -1,670;    1,180;23620,82000
 448,94;25929,730;   -5,210;    3,350;25934,94000
 449,27;26397,870;   -2,130;   -0,710;26400,00000
 449,61;27589,720;    1,540;    0,300;27588,18000
 449,95;26725,380;    4,070;    2,060;26721,31000
 450,29;24599,520;    0,860;    2,850;24598,66000
 450,63;23119,110;    1,760;    0,820;23117,35000
 450,96;24680,520;   -1,200;   -7,790;24681,72000
 451,30;25463,380;    1,290;    4,530;25462,09000
 451,64;26038,360;    1,560;   -1,050;26036,80000
 451,98;24442,920;    1,540;   -1,040;24441,38000
 452,31;24111,410;    1,200;   -2,660;24110,21000
 452,65;23221,840;    3,030;    4,490;23218,81000
 452,99;22288,480;   -3,010;    6,180;22291,49000
 453,33;21969,600;    0,530;    0,980;21969,07000
 453,66;22866,320;    3,020;   -4,470;22863,30000
 454,00;22317,800;    2,600;   -0,360;22315,20000
 454,34;21097,380;    3,610;    2,280;21093,77000
 454,68;23089,040;    0,940;    1,380;23088,10000
 455,01;21801,970;    1,600;   -1,880;21800,37000
 455,35;22645,440;    4,430;    3,650;22641,01000
 455,69;23186,790;   -4,200;    1,700;23190,99000
 456,03;22396,420;    6,530;    5,610;22389,89000
 456,36;22679,520;    1,500;    1,410;22678,02000
 456,70;23131,920;   -1,290;    2,680;23133,21000
 457,04;25549,090;   -4,250;    2,530;25553,34000
 457,38;22545,930;    3,050;   -0,030;22542,88000
 457,71;23488,050;   -2,970;   -3,490;23491,02000
 458,05;23054,070;    2,550;  -10,080;23051,52000
 458,39;23392,260;    2,950;   33,160;23389,31000
 458,73;22315,320;   -4,420;   57,340;22319,74000
 459,06;22474,330;   -2,400;    6,920;22476,73000
 459,40;23078,620;   -6,150;    7,730;23084,77000
 459,74;24448,050;    3,710;    1,140;24444,34000
 460,08;25011,760;    3,900;   13,600;25007,86000
 460,41;23951,460;    3,550;   -4,690;23947,91000
 460,75;25474,550;    3,960;    0,600;25470,59000
 461,09;27725,760;   -0,290;    0,830;27726,05000
 461,43;28102,500;   -0,180;   -2,320;28102,68000
 461,76;29518,740;   -3,020;    2,630;29521,76000
 462,10;30467,260;   -0,150;    9,230;30467,41000
 462,44;31369,830;   -2,540;    5,490;31372,37000
 462,77;31564,360;   -1,530;    5,710;31565,89000
 463,11;28987,010;    7,320;   -1,930;28979,69000
 463,45;29093,190;   -3,180;    1,210;29096,37000
 463,79;29475,280;    5,350;   -1,710;29469,93000
 464,12;28329,730;    5,320;    6,320;28324,41000
 464,46;28925,910;   -1,020;    6,990;28926,93000
 464,80;28445,430;   -1,920;    0,520;28447,35000
 465,14;27365,350;    0,000;    4,860;27365,35000
 465,47;29865,000;   -0,710;   11,350;29865,71000
 465,81;33391,970;    2,700;   -5,620;33389,27000
 466,15;38220,950;   -0,800;    0,110;38221,75000
 466,48;43772,720;   -4,570;    1,230;43777,29000
 466,82;45079,860;   -3,090;   -2,590;45082,95000
 467,16;47363,790;   -0,050;    1,610;47363,84000
 467,50;44188,770;    1,010;    4,120;44187,76000
 467,83;43865,020;   -1,120;   -1,070;43866,14000
 468,17;41075,180;   -5,640;    5,720;41080,82000
 468,51;39895,900;    1,130;    1,000;39894,77000
 468,84;39183,880;    9,120;    6,910;39174,76000
 469,18;39464,610;    0,860;   -6,220;39463,75000
 469,52;39730,040;    2,170;    0,920;39727,87000
 469,86;38183,770;    2,320;    6,540;38181,45000
 470,19;35847,940;    3,880;   -1,060;35844,06000
 470,53;36562,050;    0,090;    0,530;36561,96000
 470,87;37453,960;    3,530;    4,140;37450,43000
 471,20;35439,580;   -5,820;   -6,030;35445,40000
 471,54;35265,220;   -5,990;    4,770;35271,21000
 471,88;38686,600;    1,580;   -1,790;38685,02000
 472,21;42702,030;   -2,700;   -5,290;42704,73000
 472,55;44391,080;   -1,880;    6,290;44392,96000
 472,89;45547,490;   -1,600;    4,440;45549,09000
 473,23;43622,980;    5,500;   -0,090;43617,48000
 473,56;40279,680;    4,590;    9,310;40275,09000
 473,90;38877,660;    9,580;    0,330;38868,08000
 474,24;37767,330;    1,360;    1,450;37765,97000
 474,57;38758,400;   -1,150;    7,090;38759,55000
 474,91;36486,130;    4,250;    3,950;36481,88000
 475,25;36067,520;   -2,630;   -2,250;36070,15000
 475,58;37557,810;   -3,560;    3,030;37561,37000
 475,92;37415,370;    4,220;   -3,270;37411,15000
 476,26;37513,940;   -3,030;   -0,560;37516,97000
 476,59;37413,070;    4,600;    5,230;37408,47000
 476,93;37269,120;    0,870;    3,800;37268,25000
 477,27;38458,330;   -4,640;    6,300;38462,97000
 477,61;38540,970;    0,910;   -5,360;38540,06000
 477,94;38897,010;    1,960;    1,800;38895,05000
 478,28;40295,610;    4,700;   -0,100;40290,91000
 478,62;41575,900;    3,760;   -1,240;41572,14000
 478,95;40823,330;    0,590;    1,000;40822,74000
 479,29;42971,100;    1,450;    7,660;42969,65000
 479,63;46570,430;    4,490;    5,480;46565,94000
 479,96;48281,420;    0,710;   -3,850;48280,71000
 480,30;49578,890;   -5,770;    1,970;49584,66000
 480,64;50984,750;    3,120;   -1,970;50981,63000
 480,97;50058,960;    6,980;    0,860;50051,98000
 481,31;49425,390;  -10,680;   -3,520;49436,07000
 481,65;49518,150;   -4,050;    0,380;49522,20000
 481,98;50259,620;    2,680;   -1,670;50256,94000
 482,32;50758,310;   -4,360;    3,800;50762,67000
 482,66;51041,130;    5,850;    4,790;51035,28000
 482,99;51179,010;    2,220;    0,380;51176,79000
 483,33;49530,520;   -3,710;    2,510;49534,23000
 483,67;49934,740;    6,630;    2,390;49928,11000
 484,00;48988,560;   -0,440;   -2,890;48989,00000
 484,34;48828,890;    1,220;    0,950;48827,67000
 484,68;48833,890;    3,430;    0,430;48830,46000
 485,01;47336,600;    1,120;    7,470;47335,48000
 485,35;47698,770;   -1,210;   -0,050;47699,98000
 485,69;47558,680;   -4,690;    5,140;47563,37000
 486,02;47179,790;    1,490;    4,750;47178,30000
 486,36;46706,500;    1,720;    0,860;46704,78000
 486,70;46297,950;    3,190;    2,090;46294,76000
 487,03;46910,070;   -1,180;   -3,960;46911,25000
 487,37;46849,390;    5,640;    8,760;46843,75000
 487,70;46490,890;    4,570;   -2,870;46486,32000
 488,04;46724,340;   -1,890;   -2,980;46726,23000
 488,38;47039,160;   -0,240;    5,990;47039,40000
 488,71;47309,280;    1,690;    8,920;47307,59000
 489,05;47597,160;   -1,680;   -2,310;47598,84000
 489,39;47814,960;   -6,740;   -1,580;47821,70000
 489,72;47787,280;    2,310;   -0,500;47784,97000
 490,06;49241,100;   -3,680;    6,880;49244,78000
 490,40;51101,790;    3,150;    9,690;51098,64000
 490,73;53595,190;   -1,130;    2,160;53596,32000
 491,07;55902,470;   -4,510;    2,420;55906,98000
 491,41;57369,910;   -2,480;    5,800;57372,39000
 491,74;56914,470;    9,760;   -0,140;56904,71000
 492,08;56970,290;    7,160;    8,530;56963,13000
 492,41;55356,740;    4,670;   -1,300;55352,07000
 492,75;54834,180;   -5,210;   -0,030;54839,39000
 493,09;53153,630;    3,690;    4,150;53149,94000
 493,42;51583,990;    1,210;    4,150;51582,78000
 493,76;50890,530;   -1,380;   -0,570;50891,91000
 494,10;49883,710;    4,540;   -1,780;49879,17000
 494,43;49866,040;   -3,160;    3,110;49869,20000
 494,77;49121,810;   -3,140;    2,770;49124,95000
 495,11;49066,400;    3,930;   11,140;49062,47000
 495,44;48909,290;    5,130;   -4,530;48904,16000
 495,78;48297,950;   -1,090;    5,470;48299,04000
 496,11;48001,130;   -2,640;   -4,260;48003,77000
 496,45;48146,080;   -2,460;    6,110;48148,54000
 496,79;47775,980;   -0,380;    2,220;47776,36000
 497,12;48230,240;    2,150;    2,140;48228,09000
 497,46;47738,840;    3,960;   -2,720;47734,88000
 497,80;47270,430;   -2,580;   -1,710;47273,01000
 498,13;47140,910;   -1,200;    2,630;47142,11000
 498,47;47113,450;    1,880;   -0,940;47111,57000
 498,80;47476,160;    2,910;    0,300;47473,25000
 499,14;47471,520;    3,180;    1,520;47468,34000
 499,48;47229,700;   -3,630;    3,640;47233,33000
 499,81;47316,290;    4,100;    3,640;47312,19000
 500,15;47461,970;   -6,230;   -0,380;47468,20000
 500,48;47429,180;    5,180;   -2,000;47424,00000
 500,82;47162,950;    3,000;    3,040;47159,95000
 501,16;47465,890;    0,260;    6,580;47465,63000
 501,49;47509,420;    0,450;    2,880;47508,97000
 501,83;47619,350;    2,860;    5,120;47616,49000
 502,16;47490,040;   -1,280;   -2,370;47491,32000
 502,50;48617,670;    0,760;    1,260;48616,91000
 502,84;48391,190;   -1,410;    0,050;48392,60000
 503,17;48480,260;    4,220;   -4,780;48476,04000
 503,51;48297,210;    3,830;    5,590;48293,38000
 503,84;47827,830;   -0,960;    3,500;47828,79000
 504,18;47321,910;   -3,110;   -5,340;47325,02000
 504,52;47197,450;   -5,780;    9,360;47203,23000
 504,85;47300,820;   -2,760;    5,700;47303,58000
 505,19;47153,630;   -3,090;    6,070;47156,72000
 505,52;47441,570;    1,750;    1,120;47439,82000
 505,86;47116,130;    0,450;    0,140;47115,68000
 506,20;47241,450;   -1,530;   -6,900;47242,98000
 506,53;46618,050;   -4,950;   -0,650;46623,00000
 506,87;47629,610;   -2,330;    6,970;47631,94000
 507,20;47169,790;    4,340;    4,280;47165,45000
 507,54;47016,750;   -3,890;    1,650;47020,64000
 507,88;47103,320;    4,120;    3,780;47099,20000
 508,21;47025,420;   -4,500;   -2,490;47029,92000
 508,55;46753,260;    2,100;    7,120;46751,16000
 508,88;47001,020;   -0,670;   -2,090;47001,69000
 509,22;46313,680;    0,510;    6,200;46313,17000
 509,55;47084,770;   -1,720;   -0,800;47086,49000
 509,89;46267,710;   -2,020;   -1,440;46269,73000
 510,23;46847,040;    4,210;   -2,140;46842,83000
 510,56;46686,720;    2,290;    3,250;46684,43000
 510,90;46849,560;    2,390;    3,340;46847,17000
 511,23;46415,780;   -3,700;    2,710;46419,48000
 511,57;46520,450;    2,550;   -1,650;46517,90000
 511,90;46560,900;   -2,220;    0,050;46563,12000
 512,24;46393,590;    2,640;   -2,950;46390,95000
 512,58;47144,460;    2,830;    8,290;47141,63000
 512,91;46732,860;    4,570;    0,630;46728,29000
 513,25;46750,410;    0,840;    0,020;46749,57000
 513,58;46609,680;    1,680;    2,880;46608,00000
 513,92;46362,960;   -1,370;    0,770;46364,33000
 514,25;47090,900;   -3,740;    0,820;47094,64000
 514,59;47271,420;    2,840;    2,600;47268,58000
 514,93;47072,700;   -0,860;    1,530;47073,56000
 515,26;47394,710;    0,960;    7,590;47393,75000
 515,60;47209,070;    0,540;   -2,580;47208,53000
 515,93;47013,130;    0,320;   -1,230;47012,81000
 516,27;46900,120;    2,690;    4,840;46897,43000
 516,60;47210,900;   -3,540;    2,850;47214,44000
 516,94;46206,970;    3,080;   -2,570;46203,89000
 517,27;46685,850;   -0,960;    4,570;46686,81000
 517,61;46910,120;   -0,640;    5,270;46910,76000
 517,95;47121,430;   -0,540;    2,170;47121,97000
 518,28;47099,390;   -2,290;    5,290;47101,68000
 518,62;47218,440;    7,920;    1,670;47210,52000
 518,95;47050,310;    3,420;    1,190;47046,89000
 519,29;46743,140;    3,180;    1,710;46739,96000
 519,62;46382,930;   -0,740;    2,510;46383,67000
 519,96;46429,570;   -3,110;    3,920;46432,68000
 520,29;45729,140;    2,350;   -0,430;45726,79000
 520,63;45843,440;   -3,250;   -0,150;45846,69000
 520,96;46367,880;    4,350;    3,620;46363,53000
 521,30;46393,880;   -5,450;    1,200;46399,33000
 521,64;46578,930;    0,240;    3,890;46578,69000
 521,97;46221,480;   -5,890;    6,380;46227,37000
 522,31;46085,660;   -0,810;   -7,270;46086,47000
 522,64;45452,670;    2,370;   -5,510;45450,30000
 522,98;46195,550;    0,500;    1,290;46195,05000
 523,31;45399,530;    0,130;    1,900;45399,40000
 523,65;45859,690;   -5,310;   -6,200;45865,00000
 523,98;45645,370;    8,970;    5,970;45636,40000
 524,32;45339,740;    2,120;    1,030;45337,62000
 524,65;45614,050;    3,740;    1,710;45610,31000
 524,99;45424,400;    2,000;   -2,690;45422,40000
 525,32;45939,260;    0,150;    0,540;45939,11000
 525,66;45812,960;   -7,110;    0,430;45820,07000
 525,99;45387,280;   -1,690;    4,440;45388,97000
 526,33;45630,140;    9,160;   -3,490;45620,98000
 526,66;45393,270;   -1,560;    2,600;45394,83000
 527,00;45069,210;   -4,620;    3,270;45073,83000
 527,34;45222,940;    3,480;    5,670;45219,46000
 527,67;44911,640;   -1,250;   -0,570;44912,89000
 528,01;44530,690;    1,220;    0,220;44529,47000
 528,34;44587,370;   -4,500;    1,970;44591,87000
 528,68;44460,120;    1,710;    5,830;44458,41000
 529,01;44206,710;    0,070;   -4,490;44206,64000
 529,35;44166,180;    0,530;    3,460;44165,65000
 529,68;44124,200;   -1,680;    3,480;44125,88000
 530,02;44424,720;   -2,800;    3,200;44427,52000
 530,35;44712,990;   -2,750;   -8,440;44715,74000
 530,69;44271,770;   -0,990;   29,930;44272,76000
 531,02;44382,360;   -1,140;   56,520;44383,50000
 531,36;44261,480;    2,440;    3,800;44259,04000
 531,69;44183,230;   -5,030;    5,160;44188,26000
 532,03;44859,740;   -5,240;    3,910;44864,98000
 532,36;45165,590;   -1,230;    1,970;45166,82000
 532,70;44849,840;   -2,540;    1,890;44852,38000
 533,03;45000,450;   -2,790;   -3,110;45003,24000
 533,37;44499,360;   -0,060;    4,230;44499,42000
 533,70;44042,460;   -4,310;    4,400;44046,77000
 534,04;44493,010;    1,520;    2,450;44491,49000
 534,37;44352,170;    1,770;    2,640;44350,40000
 534,71;44312,260;    1,470;   -1,000;44310,79000
 535,04;44457,330;   -4,710;    2,680;44462,04000
 535,38;44325,000;    2,270;    3,230;44322,73000
 535,71;44112,590;    4,380;    0,930;44108,21000
 536,05;44413,840;   -2,230;    2,100;44416,07000
 536,38;44534,180;    2,050;    3,340;44532,13000
 536,72;44104,550;   -2,680;    4,090;44107,23000
 537,05;44014,180;    1,890;    6,640;44012,29000
 537,39;44338,050;    1,880;    3,610;44336,17000
 537,72;44245,430;   -0,840;    6,190;44246,27000
 538,06;44439,470;    2,220;    2,570;44437,25000
 538,39;44635,780;   -5,640;    2,250;44641,42000
 538,73;44664,930;    0,300;   -0,040;44664,63000
 539,06;44623,640;   -0,560;   -0,200;44624,20000
 539,40;45010,080;    1,750;    5,550;45008,33000
 539,73;44495,470;   -4,810;    3,140;44500,28000
 540,06;44692,030;    1,780;    6,510;44690,25000
 540,40;44793,830;    2,790;   -1,330;44791,04000
 540,73;44852,650;    2,640;    2,640;44850,01000
 541,07;44839,640;   -0,070;    1,200;44839,71000
 541,40;45025,620;    0,240;    4,640;45025,38000
 541,74;45839,070;    8,130;    3,540;45830,94000
 542,07;45215,020;   -3,090;   -0,540;45218,11000
 542,41;45146,800;   -1,130;    2,540;45147,93000
 542,74;44680,150;    4,670;    6,510;44675,48000
 543,08;45175,510;    1,970;    2,200;45173,54000
 543,41;44861,070;   -0,290;   -1,260;44861,36000
 543,75;44928,820;    2,140;   -0,700;44926,68000
 544,08;44895,840;   -0,750;   10,220;44896,59000
 544,42;44832,680;   -5,420;    0,830;44838,10000
 544,75;44973,910;   -2,280;    0,750;44976,19000
 545,09;45373,520;   -5,600;   -1,050;45379,12000
 545,42;45334,070;   -1,460;    4,050;45335,53000
 545,75;45318,150;    4,940;    3,470;45313,21000
 546,09;45088,440;   -1,750;    0,050;45090,19000
 546,42;45281,770;    3,640;    3,700;45278,13000
 546,76;45337,320;    9,320;    3,460;45328,00000
 547,09;44824,480;   -2,910;    0,370;44827,39000
 547,43;44797,730;   -1,510;    8,850;44799,24000
 547,76;44822,730;    1,600;   -4,470;44821,13000
 548,10;44664,940;    0,860;    1,660;44664,08000
 548,43;44210,370;   -1,790;    0,720;44212,16000
 548,76;44153,430;   -4,280;   -1,010;44157,71000
 549,10;44646,260;    5,890;   -0,730;44640,37000
 549,43;44627,740;   -6,170;    3,840;44633,91000
 549,77;44176,720;   -0,770;   -2,450;44177,49000
 550,10;44135,260;    7,670;    0,310;44127,59000
 550,44;44389,390;    3,800;   -0,370;44385,59000
 550,77;44297,990;    1,430;    7,640;44296,56000
 551,11;44110,770;   -0,610;    1,220;44111,38000
 551,44;43862,910;    2,070;    2,480;43860,84000
 551,77;44034,330;    1,310;   -4,760;44033,02000
 552,11;43728,010;   -4,050;    5,570;43732,06000
 552,44;43818,500;   -0,030;    4,180;43818,53000
 552,78;43739,930;    0,730;    0,480;43739,20000
 553,11;43681,700;   -6,840;   -2,650;43688,54000
 553,45;43247,000;    0,980;   -1,040;43246,02000
 553,78;43093,680;    0,440;    1,400;43093,24000
 554,12;42497,130;   -4,650;   -2,450;42501,78000
 554,45;43029,640;   -4,320;    1,230;43033,96000
 554,78;42535,360;    2,340;    4,250;42533,02000
 555,12;43078,310;   -0,580;   -2,560;43078,89000
 555,45;42836,700;   -0,940;    8,650;42837,64000
 555,79;43260,020;    2,860;   -1,140;43257,16000
 556,12;42562,900;   -1,950;    8,360;42564,85000
 556,45;42929,900;    3,230;    2,960;42926,67000
 556,79;42478,030;   -0,370;    3,240;42478,40000
 557,12;41890,930;    2,050;    2,570;41888,88000
 557,46;41616,520;   -1,250;    8,160;41617,77000
 557,79;41770,130;    4,270;    3,260;41765,86000
 558,13;41283,350;    6,110;    8,530;41277,24000
 558,46;41526,750;    0,420;    0,860;41526,33000
 558,79;41248,020;   -3,440;    6,670;41251,46000
 559,13;41431,380;   -1,920;   -3,210;41433,30000
 559,46;41070,300;    1,290;   -0,190;41069,01000
 559,80;40937,170;   -2,480;    6,490;40939,65000
 560,13;40932,620;    1,110;    3,400;40931,51000
 560,46;40719,170;    0,690;    6,230;40718,48000
 560,80;41033,920;   -2,000;    1,900;41035,92000
 561,13;41451,490;    4,790;    0,810;41446,70000
 561,47;40870,210;    1,720;    4,320;40868,49000
 561,80;40798,360;   -4,100;    4,960;40802,46000
 562,13;40454,340;   -2,510;    4,430;40456,85000
 562,47;40309,940;   10,150;    1,920;40299,79000
 562,80;39904,600;    6,410;    2,240;39898,19000
 563,14;39546,200;    0,900;   -1,680;39545,30000
 563,47;39286,890;    2,380;    2,140;39284,51000
 563,80;39353,820;    0,190;    2,900;39353,63000
 564,14;39018,490;    3,880;   -0,740;39014,61000
 564,47;39453,210;    5,540;    3,320;39447,67000
 564,81;39194,720;    8,090;   10,860;39186,63000
 565,14;39413,880;   -2,360;    0,090;39416,24000
 565,47;38845,460;   -0,210;   -1,020;38845,67000
 565,81;38723,390;    5,690;    4,490;38717,70000
 566,14;38319,770;    1,980;    2,810;38317,79000
 566,48;38903,690;    2,170;    2,470;38901,52000
 566,81;38801,110;    4,660;    2,530;38796,45000
 567,14;38315,230;   -1,900;    2,130;38317,13000
 567,48;38478,400;    1,060;    0,570;38477,34000
 567,81;38206,330;    3,420;    0,030;38202,91000
 568,15;38334,410;    0,110;    5,610;38334,30000
 568,48;38282,910;   -5,500;    1,140;38288,41000
 568,81;38195,240;    0,140;    1,110;38195,10000
 569,15;38084,760;    6,520;    1,390;38078,24000
 569,48;37507,290;    3,650;   -0,360;37503,64000
 569,81;37321,890;    1,670;    1,170;37320,22000
 570,15;37397,940;    0,580;    5,900;37397,36000
 570,48;37548,520;    3,370;    0,820;37545,15000
 570,82;36993,710;    0,300;    1,040;36993,41000
 571,15;36669,700;    0,760;    6,150;36668,94000
 571,48;36655,250;    6,350;   -5,180;36648,90000
 571,82;36090,760;   -1,560;   -0,550;36092,32000
 572,15;36278,460;    4,170;    2,300;36274,29000
 572,48;36399,110;    8,160;    0,020;36390,95000
 572,82;36327,070;    2,640;   10,180;36324,43000
 573,15;36512,850;    5,560;   -2,640;36507,29000
 573,48;36120,490;   -3,170;    0,560;36123,66000
 573,82;35836,190;    4,920;    1,280;35831,27000
 574,15;35654,520;   -0,680;    1,840;35655,20000
 574,49;36006,020;    1,740;   -5,490;36004,28000
 574,82;35771,290;    0,420;    2,660;35770,87000
 575,15;36151,200;    1,340;    0,150;36149,86000
 575,49;35755,360;   -0,980;    2,180;35756,34000
 575,82;35856,490;    0,440;   -1,800;35856,05000
 576,15;35578,050;    1,750;   -3,060;35576,30000
 576,49;35231,850;    0,390;   -3,690;35231,46000
 576,82;35838,140;    1,200;    5,280;35836,94000
 577,15;35791,150;   -0,110;    4,070;35791,26000
 577,49;35450,740;   -5,030;   -4,570;35455,77000
 577,82;35718,970;   -0,840;   -8,470;35719,81000
 578,15;35340,820;   -2,520;   -2,390;35343,34000
 578,49;35589,020;   -0,860;   -2,140;35589,88000
 578,82;35531,930;   -0,730;   -2,880;35532,66000
 579,15;35665,650;   -4,300;    2,960;35669,95000
 579,49;35812,360;   -0,720;    1,650;35813,08000
 579,82;36050,380;    2,550;   -0,470;36047,83000
 580,15;35426,670;   -4,070;    2,570;35430,74000
 580,49;35872,090;    6,470;   -0,190;35865,62000
 580,82;35503,760;   -2,980;   -1,000;35506,74000
 581,15;35460,680;   -4,140;   -6,670;35464,82000
 581,49;35319,610;    1,890;    0,300;35317,72000
 581,82;35633,850;    6,850;    5,260;35627,00000
 582,15;35791,400;   -1,590;    5,200;35792,99000
 582,49;36151,160;   -6,460;    4,200;36157,62000
 582,82;35994,780;   -1,690;   -0,030;35996,47000
 583,15;35865,320;   -4,340;   -2,490;35869,66000
 583,49;36349,990;   -1,500;    8,650;36351,49000
 583,82;36788,090;   -1,150;    0,780;36789,24000
 584,15;36474,710;    7,490;    7,420;36467,22000
 584,49;36458,360;   -0,640;   -3,360;36459,00000
 584,82;35598,390;    2,010;    6,100;35596,38000
 585,15;35806,210;    1,760;    4,700;35804,45000
 585,49;35384,650;    5,520;    7,000;35379,13000
 585,82;35353,700;    0,350;    3,200;35353,35000
 586,15;35436,940;    3,680;    3,490;35433,26000
 586,49;35280,430;   -3,340;    3,260;35283,77000
 586,82;35600,540;   -1,310;    3,970;35601,85000
 587,15;35205,410;   -4,100;    2,000;35209,51000
 587,49;35038,440;   -6,220;    2,410;35044,66000
 587,82;35269,370;   -2,250;    5,070;35271,62000
 588,15;34958,880;   -4,000;   -2,550;34962,88000
 588,49;35038,750;    1,010;    3,970;35037,74000
 588,82;35295,860;    1,850;    3,970;35294,01000
 589,15;35632,790;   -4,250;    2,130;35637,04000
 589,48;35155,040;    1,000;   -4,430;35154,04000
 589,82;35415,490;   -6,670;   -4,310;35422,16000
 590,15;34903,350;   -0,430;    0,070;34903,78000
 590,48;34834,200;    4,590;    6,020;34829,61000
 590,82;34423,870;    3,490;    6,910;34420,38000
 591,15;34200,710;   -0,100;    5,820;34200,81000
 591,48;34152,630;   -0,760;    5,330;34153,39000
 591,82;34121,930;   -7,520;   -4,460;34129,45000
 592,15;34015,280;   -0,490;    4,680;34015,77000
 592,48;33618,740;    7,090;    0,670;33611,65000
 592,81;33417,830;   -1,470;   -1,340;33419,30000
 593,15;33462,950;    4,040;    4,290;33458,91000
 593,48;33218,590;    8,950;    6,390;33209,64000
 593,81;33306,500;   -2,600;    0,930;33309,10000
 594,15;32954,920;    1,750;    1,230;32953,17000
 594,48;33151,170;   -0,660;    1,520;33151,83000
 594,81;32497,530;    3,290;    2,870;32494,24000
 595,15;32758,130;    0,520;   -0,890;32757,61000
 595,48;32350,250;    1,530;    0,350;32348,72000
 595,81;32753,530;   -0,470;    1,370;32754,00000
 596,14;32233,030;   -2,450;    5,680;32235,48000
 596,48;32150,210;    1,030;    4,810;32149,18000
 596,81;31804,950;    6,040;    9,560;31798,91000
 597,14;32343,510;   -2,300;    3,810;32345,81000
 597,47;32325,720;   -1,490;    5,660;32327,21000
 597,81;32474,500;    0,290;    4,740;32474,21000
 598,14;31915,160;    5,650;    3,320;31909,51000
 598,47;31616,120;    1,710;   -0,680;31614,41000
 598,81;31531,610;    2,120;    8,210;31529,49000
 599,14;31172,900;    0,050;    2,020;31172,85000
 599,47;31019,390;    0,240;    3,760;31019,15000
 599,80;31099,510;    2,230;    6,230;31097,28000
 600,14;30971,660;    2,680;   -6,300;30968,98000
 600,47;31198,550;    2,210;    0,600;31196,34000
 600,80;31035,970;    1,830;   -3,960;31034,14000
 601,13;30902,970;    4,890;    6,140;30898,08000
 601,47;30471,670;    0,020;    0,460;30471,65000
 601,80;30524,520;    1,330;   -1,900;30523,19000
 602,13;30501,650;   -1,880;   -8,200;30503,53000
 602,47;30374,410;    3,970;   27,790;30370,44000
 602,80;30006,200;    4,720;   63,270;30001,48000
 603,13;29760,700;    2,080;    4,230;29758,62000
 603,46;29766,660;    7,660;    2,890;29759,00000
 603,80;29685,280;    1,880;   -2,950;29683,40000
 604,13;29336,520;   11,800;    2,570;29324,72000
 604,46;29514,200;    5,310;    0,400;29508,89000
 604,79;29444,070;   -2,930;    1,990;29447,00000
 605,13;29607,050;   -1,610;    7,270;29608,66000
 605,46;29451,490;    0,020;   -5,750;29451,47000
 605,79;29324,660;   -2,540;   -0,890;29327,20000
 606,12;29175,330;   -0,640;    4,530;29175,97000
 606,46;29293,600;   -2,940;    4,550;29296,54000
 606,79;29108,570;    6,180;    3,780;29102,39000
 607,12;29327,700;   -0,850;   -2,070;29328,55000
 607,45;29009,840;    6,060;    6,620;29003,78000
 607,79;28519,520;    2,250;    5,050;28517,27000
 608,12;28466,140;    1,830;    2,650;28464,31000
 608,45;28209,130;    0,050;    3,650;28209,08000
 608,78;28151,500;    4,080;    5,020;28147,42000
 609,11;28179,750;    4,160;    0,370;28175,59000
 609,45;28104,120;    0,320;    1,040;28103,80000
 609,78;27900,740;    1,330;    1,760;27899,41000
 610,11;27865,420;   -0,320;    5,670;27865,74000
 610,44;28031,370;    1,880;    0,160;28029,49000
 610,78;27318,430;    5,660;    0,420;27312,77000
 611,11;27244,620;    4,900;    6,070;27239,72000
 611,44;27014,500;    2,170;    3,780;27012,33000
 611,77;27137,040;   -0,490;    9,420;27137,53000
 612,11;26908,910;   -5,860;    1,400;26914,77000
 612,44;27054,390;   -1,010;   -1,570;27055,40000
 612,77;27223,010;    2,460;   -0,450;27220,55000
 613,10;27163,390;    4,610;    2,290;27158,78000
 613,43;26983,380;    4,360;    3,040;26979,02000
 613,77;26806,130;    4,340;   -1,690;26801,79000
 614,10;26838,470;    1,970;    2,630;26836,50000
 614,43;26821,070;   -6,890;    4,250;26827,96000
 614,76;26873,440;   -1,670;   -1,030;26875,11000
 615,10;26922,690;    3,270;    0,940;26919,42000
 615,43;26859,500;    4,850;   11,400;26854,65000
 615,76;27154,710;    1,390;    3,040;27153,32000
 616,09;26952,660;    2,640;    7,050;26950,02000
 616,42;26946,150;   -3,850;    3,430;26950,00000
 616,76;26532,070;    3,060;   -4,530;26529,01000
 617,09;27205,380;   -6,190;    3,030;27211,57000
 617,42;26984,830;    0,790;   -3,360;26984,04000
 617,75;27191,330;    1,480;   -5,410;27189,85000
 618,08;27899,950;   -0,980;    0,440;27900,93000
 618,42;28388,340;   -0,940;    2,150;28389,28000
 618,75;28128,610;   -0,540;   -0,500;28129,15000
 619,08;28675,510;    1,770;    1,430;28673,74000
 619,41;28343,890;    1,530;   -4,170;28342,36000
 619,74;28841,210;    1,800;    5,500;28839,41000
 620,08;28568,110;    6,940;   12,770;28561,17000
 620,41;28982,440;   -2,290;   -5,400;28984,73000
 620,74;28750,470;    0,480;    4,450;28749,99000
 621,07;28483,540;    3,820;    0,870;28479,72000
 621,40;28062,140;    3,250;    1,220;28058,89000
 621,74;28524,510;   -1,130;   -0,060;28525,64000
 622,07;28298,450;    6,100;    5,000;28292,35000
 622,40;28345,480;   -5,600;    3,220;28351,08000
 622,73;28182,230;   -0,530;    5,570;28182,76000
 623,06;27604,750;    0,500;   -2,860;27604,25000
 623,39;27363,870;   -2,320;    5,390;27366,19000
 623,73;27207,610;    2,180;    0,120;27205,43000
 624,06;26947,000;    3,700;    1,630;26943,30000
 624,39;27070,040;    0,830;    4,010;27069,21000
 624,72;26685,160;   -3,130;   10,210;26688,29000
 625,05;26629,620;    1,340;    3,570;26628,28000
 625,39;26345,950;    1,200;   -1,650;26344,75000
 625,72;26353,130;   -2,150;    7,260;26355,28000
 626,05;26300,540;   -2,270;    2,990;26302,81000
 626,38;26226,280;   -0,950;    7,380;26227,23000
 626,71;25936,070;    3,540;   -5,440;25932,53000
 627,04;26081,200;    0,420;    2,190;26080,78000
 627,38;26083,620;    1,320;    3,780;26082,30000
 627,71;25854,970;    4,500;   -3,000;25850,47000
 628,04;25498,040;   -0,290;    0,330;25498,33000
 628,37;25755,890;   -3,740;    8,330;25759,63000
 628,70;25579,320;    6,230;    2,340;25573,09000
 629,03;25740,740;   -2,390;    0,700;25743,13000
 629,37;25700,250;    3,010;    1,090;25697,24000
 629,70;25501,500;    1,910;    1,190;25499,59000
 630,03;25620,020;   -2,730;    2,910;25622,75000
 630,36;25632,620;    2,280;    0,930;25630,34000
 630,69;25515,710;    6,570;    4,610;25509,14000
 631,02;25586,500;   -2,730;   -0,060;25589,23000
 631,36;25482,070;   -1,610;   -1,810;25483,68000
 631,69;25403,990;    0,030;    0,190;25403,96000
 632,02;25275,870;    3,720;    2,650;25272,15000
 632,35;25439,860;   -5,580;    4,990;25445,44000
 632,68;25204,110;   -1,100;    1,420;25205,21000
 633,01;24889,990;   -1,800;   -0,120;24891,79000
 633,34;24685,720;    1,480;   -7,040;24684,24000
 633,68;24448,950;    4,610;   -2,400;24444,34000
 634,01;24493,360;    1,420;    2,460;24491,94000
 634,34;24542,780;   -6,170;    1,250;24548,95000
 634,67;24510,620;    1,600;    4,360;24509,02000
 635,00;24029,400;    4,200;   -0,270;24025,20000
 635,33;23805,160;    3,600;   -4,520;23801,56000
 635,66;24043,950;   -4,180;    1,600;24048,13000
 636,00;23716,170;   -3,060;    1,520;23719,23000
 636,33;23481,440;    5,700;    2,600;23475,74000
 636,66;23243,660;    0,360;    2,100;23243,30000
 636,99;22968,740;   -8,800;    5,180;22977,54000
 637,32;22910,120;    0,830;    3,410;22909,29000
 637,65;22894,810;   -1,270;   -0,530;22896,08000
 637,98;22586,730;    3,650;    0,300;22583,08000
 638,32;22347,320;   -0,840;    2,560;22348,16000
 638,65;22219,030;    1,660;    7,760;22217,37000
 638,98;22295,680;   -1,580;   -2,870;22297,26000
 639,31;22265,390;   -1,820;   -4,230;22267,21000
 639,64;22279,710;    1,170;    0,830;22278,54000
 639,97;22082,540;   -2,040;    5,530;22084,58000
 640,30;21951,180;    0,720;   -2,140;21950,46000
 640,63;21881,600;    2,250;    1,570;21879,35000
 640,97;21797,000;   -1,310;    1,110;21798,31000
 641,30;21442,810;    3,990;    7,220;21438,82000
 641,63;21569,020;    0,450;    2,240;21568,57000
 641,96;21303,470;   -1,540;   -2,020;21305,01000
 642,29;21324,820;    0,200;    5,920;21324,62000
 642,62;20789,420;   -0,500;    1,470;20789,92000
 642,95;20819,950;    6,400;    1,970;20813,55000
 643,28;20768,050;   -0,510;    4,550;20768,56000
 643,61;20470,540;    1,780;   -0,630;20468,76000
 643,95;20458,970;   -2,590;   -2,100;20461,56000
 644,28;20427,610;    1,220;    4,670;20426,39000
 644,61;20200,020;    5,640;    2,590;20194,38000
 644,94;20139,730;   -0,110;    2,720;20139,84000
 645,27;20109,730;   -2,000;   -4,700;20111,73000
 645,60;20008,400;    2,950;    7,200;20005,45000
 645,93;19908,180;    0,460;   -3,130;19907,72000
 646,26;20045,550;    5,650;   -1,160;20039,90000
 646,59;19897,190;   -1,550;    8,770;19898,74000
 646,92;19948,480;    0,210;   -0,800;19948,27000
 647,26;19789,940;   -5,810;   -0,400;19795,75000
 647,59;19735,230;    5,180;    2,300;19730,05000
 647,92;19649,850;   -1,910;    1,320;19651,76000
 648,25;19311,740;    4,950;   -0,750;19306,79000
 648,58;19075,250;    2,400;    7,320;19072,85000
 648,91;18805,660;    3,540;   -1,540;18802,12000
 649,24;18486,390;    6,380;    1,190;18480,01000
 649,57;18362,590;    2,270;    3,270;18360,32000
 649,90;18141,300;    2,820;   10,310;18138,48000
 650,23;18181,260;    5,260;    4,800;18176,00000
 650,56;17961,230;    6,300;    1,150;17954,93000
 650,90;18143,320;    4,220;   -4,310;18139,10000
 651,23;18263,100;    0,340;    1,350;18262,76000
 651,56;18548,640;    3,410;    3,210;18545,23000
 651,89;18617,580;   -3,630;    5,780;18621,21000
 652,22;19042,600;    5,340;   -3,950;19037,26000
 652,55;19258,740;   -1,690;   10,250;19260,43000
 652,88;19735,820;    2,810;   -0,760;19733,01000
 653,21;19993,170;   -0,980;    6,810;19994,15000
 653,54;20626,700;   -1,250;   -5,450;20627,95000
 653,87;21162,090;    5,870;   -1,370;21156,22000
 654,20;22189,060;   -3,490;    8,700;22192,55000
 654,53;22838,930;    5,390;    1,880;22833,54000
 654,86;23660,520;    2,970;   -0,280;23657,55000
 655,20;24091,030;   -1,370;    2,020;24092,40000
 655,53;24496,480;   -0,100;    0,940;24496,58000
 655,86;24759,300;    0,770;    5,800;24758,53000
 656,19;25344,650;    2,690;   -4,610;25341,96000
 656,52;25339,030;    2,660;    2,500;25336,37000
 656,85;25399,700;    1,210;   -3,520;25398,49000
 657,18;25419,080;    8,610;    2,350;25410,47000
 657,51;25216,870;    1,420;    1,360;25215,45000
 657,84;25133,140;   -0,300;    3,900;25133,44000
 658,17;25496,180;    0,000;    2,210;25496,18000
 658,50;26201,540;   -3,710;    0,070;26205,25000
 658,83;26981,850;    2,230;   -1,990;26979,62000
 659,16;27657,120;   -3,120;    2,010;27660,24000
 659,49;27853,320;   -4,500;    3,010;27857,82000
 659,82;27129,860;    5,030;    4,520;27124,83000
 660,15;25756,720;    1,100;   -0,950;25755,62000
 660,48;23788,070;   -0,990;   -2,180;23789,06000
 660,81;22166,900;    3,460;    0,810;22163,44000
 661,15;21020,430;    5,630;    4,170;21014,80000
 661,48;20785,310;   -3,050;   -3,960;20788,36000
 661,81;20982,310;    0,410;    9,950;20981,90000
 662,14;20740,830;    0,160;   -0,980;20740,67000
 662,47;20150,150;    0,610;    1,520;20149,54000
 662,80;19962,730;    0,750;    3,350;19961,98000
 663,13;19796,360;   -3,690;    7,380;19800,05000
 663,46;19780,140;   -5,480;    2,220;19785,62000
 663,79;19629,390;   -1,050;    6,740;19630,44000
 664,12;19664,680;    3,380;    0,870;19661,30000
 664,45;19461,010;    7,770;   -0,860;19453,24000
 664,78;19456,620;    0,440;   -2,110;19456,18000
 665,11;19466,600;    0,640;    3,620;19465,96000
 665,44;19380,080;    4,070;    2,350;19376,01000
 665,77;19424,770;    4,860;    5,630;19419,91000
 666,10;19503,810;    4,110;    5,000;19499,70000
 666,43;19335,540;   -4,850;   -0,720;19340,39000
 666,76;19377,860;    0,470;    1,910;19377,39000
 667,09;19151,110;   -0,990;    0,790;19152,10000
 667,42;19289,720;    2,100;    0,390;19287,62000
 667,75;19477,510;    6,180;   -0,330;19471,33000
 668,08;19549,140;   -7,910;    7,960;19557,05000
 668,41;19482,010;    1,540;    0,800;19480,47000
 668,74;19212,040;   -1,100;    1,150;19213,14000
 669,07;19067,830;   -1,420;    1,860;19069,25000
 669,40;19046,180;    0,970;    2,380;19045,21000
 669,73;19254,720;    8,590;    4,600;19246,13000
 670,06;19175,460;    2,900;   -5,490;19172,56000
 670,39;18824,990;   -1,080;   -2,420;18826,07000
 670,72;18934,570;    4,430;    1,250;18930,14000
 671,05;18657,840;   -1,650;   -0,450;18659,49000
 671,38;18965,260;   -0,310;    6,620;18965,57000
 671,71;19035,610;   -1,540;    4,900;19037,15000
 672,04;19046,790;    3,250;   -2,120;19043,54000
 672,37;18931,300;   -0,850;    4,390;18932,15000
 672,70;18852,870;    1,960;    4,480;18850,91000
 673,03;18756,890;    1,690;    6,180;18755,20000
 673,36;18780,650;    0,610;   -6,710;18780,04000
 673,69;18708,380;    4,290;   29,090;18704,09000
 674,02;19078,870;    0,030;   55,770;19078,84000
 674,35;18916,140;   -2,290;    9,490;18918,43000
 674,68;18926,240;   -2,750;    3,540;18928,99000
 675,01;18539,390;    1,060;    2,080;18538,33000
 675,34;18501,650;   -0,760;   -2,220;18502,41000
 675,67;18228,070;    2,450;    2,970;18225,62000
 676,00;18171,270;    1,180;   -1,250;18170,09000
 676,33;17980,030;    1,220;   -6,420;17978,81000
 676,66;17761,290;    1,050;   -0,150;17760,24000
 676,99;17507,700;    5,420;    7,890;17502,28000
 677,32;17633,170;    1,780;   -1,880;17631,39000
 677,65;17659,930;   -0,840;   -4,020;17660,77000
 677,98;17519,130;   -3,640;    3,480;17522,77000
 678,31;17319,140;    0,660;    6,580;17318,48000
 678,64;17144,050;    5,090;   -4,210;17138,96000
 678,97;16992,080;    0,020;    2,890;16992,06000
 679,30;17017,530;    1,660;   -0,040;17015,87000
 679,63;16977,940;    3,330;    5,790;16974,61000
 679,96;17329,460;   -2,380;   -1,410;17331,84000
 680,29;17112,480;    2,590;    1,260;17109,89000
 680,62;17355,130;    4,840;    5,810;17350,29000
 680,95;17640,890;    3,280;   -0,190;17637,61000
 681,28;17899,820;    4,640;   -2,040;17895,18000
 681,61;18307,730;    3,550;   -1,620;18304,18000
 681,94;18900,000;   -2,160;    0,000;18902,16000
 682,27;19232,520;   -4,080;    0,170;19236,60000
 682,60;19604,170;    0,530;    4,920;19603,64000
 682,93;19335,250;   -2,870;    3,030;19338,12000
 683,26;19078,580;   -2,260;    2,380;19080,84000
 683,59;19050,400;    1,770;   -0,460;19048,63000
 683,92;18811,080;   -2,020;    0,570;18813,10000
 684,24;18521,590;    1,490;    7,000;18520,10000
 684,57;18634,460;    2,760;    3,390;18631,70000
 684,90;18473,920;    4,260;    6,430;18469,66000
 685,23;18471,510;    0,880;   -2,620;18470,63000
 685,56;18385,070;   -0,010;   -1,780;18385,08000
 685,89;18584,360;    2,410;    1,720;18581,95000
 686,22;18898,810;   -4,190;    4,030;18903,00000
 686,55;18867,330;   -2,320;    0,730;18869,65000
 686,88;19212,890;   -1,310;   11,380;19214,20000
 687,21;19442,820;   -6,960;   -0,430;19449,78000
 687,54;19536,230;    7,240;    8,200;19528,99000
 687,87;19790,990;    5,190;    4,250;19785,80000
 688,20;19929,470;   -9,010;    2,520;19938,48000
 688,53;19930,240;    1,410;    5,130;19928,83000
 688,86;19665,080;    1,560;    3,570;19663,52000
 689,19;19661,750;    6,120;   -0,020;19655,63000
 689,52;19314,680;   -1,210;    5,530;19315,89000
 689,85;19135,560;   -5,280;   -1,290;19140,84000
 690,17;18750,290;   -0,120;    2,570;18750,41000
 690,50;18488,020;    1,360;    2,660;18486,66000
 690,83;17954,470;    2,630;    5,740;17951,84000
 691,16;17526,450;    0,690;    3,030;17525,76000
 691,49;17249,870;    1,640;    5,260;17248,23000
 691,82;16841,120;   -2,250;   -4,120;16843,37000
 692,15;16407,780;   -1,210;    7,820;16408,99000
 692,48;16411,460;   -0,230;    5,570;16411,69000
 692,81;16243,730;    0,520;    4,270;16243,21000
 693,14;16026,060;    3,270;    4,640;16022,79000
 693,47;15785,040;   -1,460;   -1,070;15786,50000
 693,80;15618,820;   -0,750;   -2,960;15619,57000
 694,13;15295,810;   -8,170;    5,080;15303,98000
 694,46;15047,750;   33,810;    0,310;15013,94000
 694,78;14916,420;   67,530;    0,650;14848,89000
 695,11;14859,960;    6,320;   -4,040;14853,64000
 695,44;14517,790;    4,260;    5,590;14513,53000
 695,77;14378,410;    2,250;    0,000;14376,16000
 696,10;14135,490;    4,380;    3,060;14131,11000
 696,43;14117,920;   -4,470;    2,670;14122,39000
 696,76;13932,040;   -8,130;    4,400;13940,17000
 697,09;13945,680;    1,160;    0,650;13944,52000
 697,42;13839,260;   -7,610;    2,390;13846,87000
 697,75;13852,380;    1,290;   -8,840;13851,09000
 698,08;14066,610;   -5,320;    5,130;14071,93000
 698,40;14263,920;   -5,310;    2,210;14269,23000
 698,73;14130,450;    3,490;    7,900;14126,96000
 699,06;14166,110;   -1,900;    1,350;14168,01000
 699,39;13891,770;    8,530;   -1,150;13883,24000
 699,72;13700,070;   -0,830;   -1,240;13700,90000
 700,05;13449,910;   -1,820;    2,270;13451,73000
 700,38;13410,280;    3,180;    6,910;13407,10000
 700,71;13093,560;   -1,720;    4,100;13095,28000
 701,04;12948,250;   -1,370;   -1,360;12949,62000
 701,36;12730,770;    3,130;    6,320;12727,64000
 701,69;12695,770;    1,430;    3,590;12694,34000
 702,02;12594,440;   -0,210;   -2,490;12594,65000
 702,35;12633,090;    4,190;   -5,070;12628,90000
 702,68;12515,020;    4,700;    1,660;12510,32000
 703,01;12713,750;    1,660;    2,080;12712,09000
 703,34;12548,990;  -11,190;    0,800;12560,18000
 703,67;12334,590;    1,870;    1,750;12332,72000
 704,00;12068,890;   -5,410;    6,960;12074,30000
 704,32;12083,570;   -1,480;   -1,420;12085,05000
 704,65;12165,540;    6,870;    6,280;12158,67000
 704,98;12309,480;   -7,060;    1,350;12316,54000
 705,31;12347,290;    2,170;    1,580;12345,12000
 705,64;12376,000;   -1,180;    1,270;12377,18000
 705,97;12245,750;    2,810;    4,820;12242,94000
 706,30;12310,780;   -3,820;   -1,790;12314,60000
 706,63;12165,950;   -1,290;    6,080;12167,24000
 706,95;12531,820;   -1,320;   -2,710;12533,14000
 707,28;12630,440;   -5,350;    7,860;12635,79000
 707,61;12669,890;   -1,070;    1,370;12670,96000
 707,94;12837,670;    5,040;   10,000;12832,63000
 708,27;13045,760;    6,210;   -1,360;13039,55000
 708,60;13198,590;    3,640;   -2,070;13194,95000
 708,93;13290,790;    2,710;    2,700;13288,08000
 709,25;13603,390;   -0,770;    6,350;13604,16000
 709,58;13935,440;    0,880;    3,760;13934,56000
 709,91;14159,310;   -1,500;    5,090;14160,81000
 710,24;14370,330;    1,390;    3,920;14368,94000
 710,57;14605,960;    7,850;    2,830;14598,11000
 710,90;14995,350;   -0,610;    3,620;14995,96000
 711,23;15207,300;   -9,040;    8,040;15216,34000
 711,55;15617,800;    3,950;   -0,150;15613,85000
 711,88;15744,590;    3,550;    1,210;15741,04000
 712,21;16012,530;    1,630;   -3,440;16010,90000
 712,54;15824,940;    4,800;   -0,220;15820,14000
 712,87;15706,180;    0,670;    9,900;15705,51000
 713,20;15454,550;   -2,580;    5,450;15457,13000
 713,52;15263,390;    2,090;   -3,240;15261,30000
 713,85;15049,390;   -0,960;    5,850;15050,35000
 714,18;14907,190;    0,730;    3,060;14906,46000
 714,51;14765,640;    0,980;    3,810;14764,66000
 714,84;14472,880;   -0,540;    1,920;14473,42000
 715,17;14088,130;    0,250;    8,430;14087,88000
 715,50;13750,360;    0,320;    3,010;13750,04000
 715,82;13556,860;    3,740;    5,880;13553,12000
 716,15;13430,860;   -2,290;   -4,590;13433,15000
 716,48;13231,330;   -1,750;    3,130;13233,08000
 716,81;12994,710;    1,380;   -5,980;12993,33000
 717,14;12528,580;    1,360;    0,570;12527,22000
 717,47;12342,660;    0,700;   -0,180;12341,96000
 717,79;12223,480;    0,620;    8,090;12222,86000
 718,12;12128,320;    2,490;    1,360;12125,83000
 718,45;11979,650;   -1,400;    3,060;11981,05000
 718,78;11987,440;    2,300;    1,190;11985,14000
 719,11;11801,400;    0,750;    2,810;11800,65000
 719,43;11728,550;    3,410;    1,390;11725,14000
 719,76;11546,080;   -0,540;    4,150;11546,62000
 720,09;11382,410;   -1,540;    4,260;11383,95000
 720,42;11290,660;    2,180;    4,350;11288,48000
 720,75;10967,810;    3,310;    3,110;10964,50000
 721,08;11012,850;    3,520;    1,510;11009,33000
 721,40;10787,580;    3,030;    3,980;10784,55000
 721,73;10630,950;   -1,940;   -1,970;10632,89000
 722,06;10527,110;   -2,140;   -2,640;10529,25000
 722,39;10440,480;   -0,790;    7,670;10441,27000
 722,72;10341,840;    7,080;   -3,930;10334,76000
 723,04;10466,020;    0,230;    1,320;10465,79000
 723,37;10578,490;   -0,660;    3,070;10579,15000
 723,70;10609,730;    1,360;   -0,900;10608,37000
 724,03;10661,290;   -3,600;   -6,630;10664,89000
 724,36;10579,220;    7,940;    3,020;10571,28000
 724,68;10550,710;   -1,570;   -1,560;10552,28000
 725,01;10535,570;    2,550;    1,850;10533,02000
 725,34;10733,380;    2,250;   -0,960;10731,13000
 725,67;10731,990;    3,350;    2,480;10728,64000
 726,00;11123,920;   -1,800;    7,750;11125,72000
 726,32;11246,120;   -0,270;    3,050;11246,39000
 726,65;11357,900;   -0,450;   -0,760;11358,35000
 726,98;11354,100;    0,750;    3,880;11353,35000
 727,31;11484,430;    0,670;    0,160;11483,76000
 727,63;11760,250;    6,120;    8,020;11754,13000
 727,96;12027,890;   -2,070;    3,610;12029,96000
 728,29;12121,520;    2,390;   -0,610;12119,13000
 728,62;12191,980;    3,410;    1,180;12188,57000
 728,95;12105,840;   -0,720;   -0,820;12106,56000
 729,27;12045,640;    2,340;    7,960;12043,30000
 729,60;12140,820;   -6,270;   -1,710;12147,09000
 729,93;12183,110;    0,100;   -4,110;12183,01000
 730,26;12451,810;   -3,420;    8,560;12455,23000
 730,58;12671,430;    3,090;   -1,830;12668,34000
 730,91;12959,570;   -0,030;    4,510;12959,60000
 731,24;13125,410;   -3,290;    1,140;13128,70000
 731,57;13190,570;    1,710;    3,090;13188,86000
 731,90;13317,500;   -0,330;   -6,190;13317,83000
 732,22;13457,700;   -0,860;    6,800;13458,56000
 732,55;13772,600;    0,890;    3,110;13771,71000
 732,88;13781,520;   -0,290;    0,740;13781,81000
 733,21;13508,910;   -1,130;   10,850;13510,04000
 733,53;13194,800;   -1,710;    0,450;13196,51000
 733,86;12691,710;    1,860;    3,730;12689,85000
 734,19;12106,920;   -2,560;    3,450;12109,48000
 734,52;11749,510;    2,480;    1,540;11747,03000
 734,84;11573,530;    3,680;    1,440;11569,85000
 735,17;11368,150;    4,160;   -1,320;11363,99000
 735,50;11134,270;    2,430;   -0,850;11131,84000
 735,83;10861,370;    7,650;   -1,650;10853,72000
 736,15;10708,590;    5,460;    2,490;10703,13000
 736,48;10528,240;   -6,130;    5,340;10534,37000
 736,81;10517,860;   -1,950;    1,350;10519,81000
 737,14;10587,370;    1,120;   -4,140;10586,25000
 737,46;10554,470;    0,850;    4,840;10553,62000
 737,79;10684,250;    4,280;   -2,310;10679,97000
 738,12;10672,900;    0,320;    6,120;10672,58000
 738,45;10895,620;    3,470;    1,350;10892,15000
 738,77;11099,720;    5,090;    4,940;11094,63000
 739,10;11318,650;   -9,000;   -0,690;11327,65000
 739,43;11255,910;    4,380;   -0,540;11251,53000
 739,76;11630,510;    0,640;    1,650;11629,87000
 740,08;11558,340;    7,770;    0,290;11550,57000
 740,41;11657,610;    6,550;    0,300;11651,06000
 740,74;11525,600;    9,550;    3,160;11516,05000
 741,07;11488,710;   -0,090;    0,280;11488,80000
 741,39;11337,730;    0,580;    5,360;11337,15000
 741,72;11152,830;   -0,130;   -2,020;11152,96000
 742,05;10914,660;    0,150;    3,630;10914,51000
 742,37;10763,690;   -3,900;    0,320;10767,59000
 742,70;10710,620;    3,860;    0,610;10706,76000
 743,03;10438,300;   -4,210;   -2,160;10442,51000
 743,36;10323,540;   -5,250;    7,750;10328,79000
 743,68;10112,930;   -2,060;   -6,600;10114,99000
 744,01; 9835,870;    3,030;   -4,660;9832,84000
 744,34; 9675,820;    0,800;   35,160;9675,02000
 744,67; 9594,650;    1,590;   59,020;9593,06000
 744,99; 9530,330;   -2,250;    0,210;9532,58000
 745,32; 9425,830;    8,190;    3,980;9417,64000
 745,65; 9366,450;   -1,040;   -0,900;9367,49000
 745,97; 9290,130;   -0,100;    1,530;9290,23000
 746,30; 9035,690;    0,600;   -5,220;9035,09000
 746,63; 9029,810;   -2,020;    6,550;9031,83000
 746,96; 8892,930;   -8,070;    1,040;8901,00000
 747,28; 8945,930;    0,240;    1,440;8945,69000
 747,61; 8869,340;    0,190;    1,610;8869,15000
 747,94; 8970,690;   -2,000;    2,830;8972,69000
 748,26; 9250,170;    0,220;    0,100;9249,95000
 748,59; 9196,060;    5,620;    8,660;9190,44000
 748,92; 9296,630;    0,240;   -3,870;9296,39000
 749,24; 9354,370;    3,770;    6,190;9350,60000
 749,57; 9449,480;    0,900;   -2,390;9448,58000
 749,90; 9395,650;   -2,540;    4,970;9398,19000
 750,23; 9294,420;   -3,540;   -0,060;9297,96000
 750,55; 9232,790;    0,860;    2,610;9231,93000
 750,88; 9197,790;    2,460;    3,380;9195,33000
 751,21; 8982,750;    1,930;    1,980;8980,82000
 751,53; 8989,620;    5,830;    0,920;8983,79000
 751,86; 8883,720;   12,480;    6,040;8871,24000
 752,19; 8929,560;   -2,060;    7,680;8931,62000
 752,51; 8946,850;   -5,500;    6,440;8952,35000
 752,84; 8804,740;   -1,750;    0,490;8806,49000
 753,17; 8710,460;    2,900;    0,200;8707,56000
 753,49; 8768,600;    2,690;   -3,910;8765,91000
 753,82; 8722,280;    2,790;    5,610;8719,49000
 754,15; 8687,660;    2,270;    1,120;8685,39000
 754,47; 8526,240;    7,130;    9,680;8519,11000
 754,80; 8568,830;   -0,090;    1,190;8568,92000
 755,13; 8555,420;   -1,940;   -4,170;8557,36000
 755,45; 8408,660;    0,720;    1,490;8407,94000
 755,78; 8410,980;   -0,180;    3,250;8411,16000
 756,11; 8466,220;   -4,260;    7,370;8470,48000
 756,43; 8406,840;   -1,680;    0,310;8408,52000
 756,76; 8598,740;    5,500;    2,100;8593,24000
 757,09; 8523,620;    3,150;    3,620;8520,47000
 757,41; 8579,690;   -0,370;    4,740;8580,06000
 757,74; 8524,850;    0,970;    6,360;8523,88000
 758,07; 8533,880;    1,920;    4,440;8531,96000
 758,39; 8529,830;    4,240;    5,440;8525,59000
 758,72; 8690,610;   -1,630;    0,920;8692,24000
 759,05; 8723,130;    2,950;    2,200;8720,18000
 759,37; 8784,990;   -1,690;   -2,890;8786,68000
 759,70; 8779,150;   10,300;   -2,400;8768,85000
 760,03; 8887,840;   -1,510;    6,060;8889,35000
 760,35; 8858,440;    1,750;    6,640;8856,69000
 760,68; 9032,730;   -0,350;    1,000;9033,08000
 761,01; 9032,380;   -1,870;    6,920;9034,25000
 761,33; 9073,140;   -1,090;    2,090;9074,23000
 761,66; 9323,460;   -5,350;    2,630;9328,81000
 761,99; 9670,170;   -2,760;    3,130;9672,93000
 762,31;10198,320;    0,420;    1,450;10197,90000
 762,64;11603,660;    2,970;    0,760;11600,69000
 762,97;13408,610;    1,600;   -0,440;13407,01000
 763,29;15798,240;   -5,020;   -0,550;15803,26000
 763,62;17660,480;   -0,890;    7,820;17661,37000
 763,95;18673,400;   -0,600;    1,340;18674,00000
 764,27;17792,860;   -1,500;    3,170;17794,36000
 764,60;16096,850;    2,090;   -4,100;16094,76000
 764,92;14150,310;    3,180;    1,260;14147,13000
 765,25;12727,100;   -1,390;    8,770;12728,49000
 765,58;11469,440;   -0,740;   -0,640;11470,18000
 765,90;10561,060;    0,560;    4,990;10560,50000
 766,23; 9669,090;   -1,440;    4,760;9670,53000
 766,56; 9215,020;   -2,030;   -3,620;9217,05000
 766,88; 8822,480;    0,960;    3,820;8821,52000
 767,21; 8479,370;   -7,880;    2,070;8487,25000
 767,53; 8244,030;   -6,250;    0,990;8250,28000
 767,86; 8073,880;   -2,410;    4,890;8076,29000
 768,19; 7787,760;   -3,710;    4,780;7791,47000
 768,51; 7608,080;   -2,320;    3,960;7610,40000
 768,84; 7425,070;    0,170;    1,170;7424,90000
 769,17; 7211,690;   -1,890;    4,060;7213,58000
 769,49; 7010,380;    5,700;   -3,840;7004,68000
 769,82; 6938,240;    2,760;   -5,320;6935,48000
 770,14; 6870,400;    2,530;    3,870;6867,87000
 770,47; 6818,260;   -2,540;    5,330;6820,80000
 770,80; 6722,840;    2,170;   -2,120;6720,67000
 771,12; 6465,210;   -0,420;    3,950;6465,63000
 771,45; 6343,200;   -1,570;    2,340;6344,77000
 771,77; 6293,910;    2,620;    7,270;6291,29000
 772,10; 6208,810;    3,650;   -3,300;6205,16000
 772,43; 6187,640;    1,630;    2,510;6186,01000
 772,75; 6204,990;    0,260;   -2,280;6204,73000
 773,08; 6080,950;   -0,100;   -0,720;6081,05000
 773,40; 5988,610;    5,720;    0,690;5982,89000
 773,73; 5865,300;   -1,250;    3,470;5866,55000
 774,06; 5689,360;    2,910;    1,330;5686,45000
 774,38; 5659,180;    7,260;    0,760;5651,92000
 774,71; 5488,130;    4,870;    8,490;5483,26000
 775,03; 5453,140;   -2,970;    4,040;5456,11000
 775,36; 5488,530;    6,920;    1,510;5481,61000
 775,69; 5510,010;    0,510;   -2,440;5509,50000
 776,01; 5434,150;    6,930;    8,540;5427,22000
 776,34; 5433,950;    4,880;    3,570;5429,07000
 776,66; 5333,060;   -2,650;    1,640;5335,71000
 776,99; 5313,730;    2,070;   -1,700;5311,66000
 777,32; 5225,650;    1,110;    1,210;5224,54000
 777,64; 5259,600;    3,540;   -2,660;5256,06000
 777,97; 5210,260;   -0,840;    2,580;5211,10000
 778,29; 5135,930;    1,050;    0,670;5134,88000
 778,62; 5131,400;    7,560;    0,590;5123,84000
 778,94; 5037,570;    7,890;   -2,060;5029,68000
 779,27; 4998,980;   -0,640;   -0,810;4999,62000
 779,60; 5028,560;   -7,380;   -0,800;5035,94000
 779,92; 4947,500;    4,210;    5,630;4943,29000
 780,25; 5028,500;   -6,290;    1,370;5034,79000
 780,57; 5020,230;    2,040;   -1,900;5018,19000
 780,90; 5016,910;   -2,830;   -0,400;5019,74000
 781,22; 4953,690;    6,240;    2,550;4947,45000
 781,55; 4953,110;    3,900;    1,740;4949,21000
 781,88; 4928,350;   -2,170;   -6,260;4930,52000
 782,20; 4930,420;    7,380;   -1,300;4923,04000
 782,53; 4860,190;    3,950;    3,670;4856,24000
 782,85; 4858,440;   -3,880;   -5,360;4862,32000
 783,18; 4798,050;   -2,630;    2,840;4800,68000
 783,50; 4815,840;   -3,040;    0,350;4818,88000
 783,83; 4773,630;   -1,050;    0,660;4774,68000
 784,15; 4706,340;    0,980;    3,330;4705,36000
 784,48; 4612,160;    6,680;    4,600;4605,48000
 784,81; 4619,420;   -2,590;   -5,350;4622,01000
 785,13; 4596,710;    3,960;    0,400;4592,75000
 785,46; 4493,100;    2,600;   -0,950;4490,50000
 785,78; 4545,760;    1,450;    7,470;4544,31000
 786,11; 4643,050;    3,730;    3,530;4639,32000
 786,43; 4704,550;   -0,840;   10,760;4705,39000
 786,76; 4787,280;   -4,760;    2,400;4792,04000
 787,08; 4920,930;   -2,530;    3,910;4923,46000
 787,41; 5072,460;    2,130;   -0,790;5070,33000
 787,74; 5295,810;   -0,570;    0,400;5296,38000
 788,06; 5674,250;   -2,220;    1,680;5676,47000
 788,39; 5921,450;   -1,360;    5,840;5922,81000
 788,71; 6175,820;    0,840;   -3,830;6174,98000
 789,04; 6021,360;   -5,030;    2,920;6026,39000
 789,36; 5975,290;    3,420;   -0,020;5971,87000
 789,69; 5705,760;   -0,180;    3,230;5705,94000
 790,01; 5536,490;    1,390;   10,890;5535,10000
 790,34; 5268,450;    6,540;    2,500;5261,91000
 790,66; 5056,710;    2,670;   -2,490;5054,04000
 790,99; 4865,810;   -3,440;    5,580;4869,25000
 791,31; 4716,310;   -4,710;    6,140;4721,02000
 791,64; 4630,400;   -5,650;   -4,470;4636,05000
 791,96; 4468,190;   -1,520;    6,380;4469,71000
 792,29; 4393,110;    1,370;    5,650;4391,74000
 792,61; 4322,860;    1,340;    0,020;4321,52000
 792,94; 4115,920;    2,830;    5,160;4113,09000
 793,26; 4122,460;    3,690;   -0,200;4118,77000
 793,59; 4072,530;   -1,530;    9,690;4074,06000
 793,92; 4070,760;   -1,850;    1,540;4072,61000
 794,24; 4090,700;    1,550;    5,100;4089,15000
 794,57; 4171,490;   -2,590;   -5,260;4174,08000
 794,89; 4265,610;   -0,400;   -0,480;4266,01000
 795,22; 4318,040;   -2,430;    2,220;4320,47000
 795,54; 4423,130;    6,640;    7,430;4416,49000
 795,87; 4683,330;    4,310;    0,880;4679,02000
 796,19; 4827,690;    7,020;    6,260;4820,67000
 796,52; 4948,540;   -4,320;    5,170;4952,86000
 796,84; 4960,220;    1,410;    1,760;4958,81000
 797,17; 5035,510;    5,020;   -3,080;5030,49000
 797,49; 4901,060;    0,950;    0,780;4900,11000
 797,82; 4795,650;   -1,770;    2,090;4797,42000
 798,14; 4658,060;   -1,940;    2,030;4660,00000
 798,47; 4607,500;    0,890;    0,490;4606,61000
 798,79; 4484,950;    0,390;   -0,860;4484,56000
 799,12; 4342,240;   -3,120;   -2,310;4345,36000
 799,44; 4198,400;    0,150;   -1,110;4198,25000
 799,77; 4123,880;    3,110;   -1,440;4120,77000
 800,09; 4071,850;   -0,240;   10,240;4072,09000
 800,41; 3983,890;    5,960;   -2,340;3977,93000
 800,74; 3941,630;   -3,240;    3,450;3944,87000
 801,06; 3847,720;    4,800;   -7,190;3842,92000
 801,39; 3813,100;    4,170;    2,400;3808,93000
 801,71; 3703,000;    2,600;   -3,940;3700,40000
 802,04; 3644,850;   -0,840;    4,240;3645,69000
 802,36; 3568,960;    3,480;   -2,970;3565,48000
 802,69; 3567,660;    2,180;   -4,430;3565,48000
 803,01; 3539,800;   -2,870;    0,510;3542,67000
 803,34; 3449,410;    2,540;   -2,400;3446,87000
 803,66; 3477,070;    2,340;    3,190;3474,73000
 803,99; 3430,530;    0,790;    2,060;3429,74000
 804,31; 3427,320;    4,380;    4,070;3422,94000
 804,64; 3446,340;   -0,540;    3,730;3446,88000
 804,96; 3462,490;   -0,860;    3,880;3463,35000
 805,29; 3470,190;    0,370;    6,430;3469,82000
 805,61; 3574,120;   -0,800;    1,440;3574,92000
 805,94; 3632,360;    1,950;    0,290;3630,41000
 806,26; 3617,880;   -1,700;    3,510;3619,58000
 806,58; 3595,040;    0,910;   -2,160;3594,13000
 806,91; 3659,930;   -1,220;    0,750;3661,15000
 807,23; 3659,390;    5,410;    2,050;3653,98000
 807,56; 3690,070;   -3,270;    6,540;3693,34000
 807,88; 3747,630;   -0,920;    8,290;3748,55000
 808,21; 3701,750;   -1,740;   -5,460;3703,49000
 808,53; 3687,570;    1,580;    1,340;3685,99000
 808,86; 3695,550;    1,180;   -5,240;3694,37000
 809,18; 3672,170;    0,870;    0,450;3671,30000
 809,51; 3650,760;    2,350;   -5,160;3648,41000
 809,83; 3584,900;    4,250;    5,870;3580,65000
 810,15; 3650,770;   -0,370;    5,920;3651,14000
 810,48; 3579,410;   -1,250;   -2,210;3580,66000
 810,80; 3578,130;   -2,200;    2,710;3580,33000
 811,13; 3558,490;   -2,270;    1,330;3560,76000
 811,45; 3592,810;   -3,240;    4,280;3596,05000
 811,78; 3542,570;    3,530;   -1,820;3539,04000
 812,10; 3480,060;    0,310;   -1,550;3479,75000
 812,43; 3482,070;    0,640;   -0,300;3481,43000
 812,75; 3472,600;   -9,020;   -0,680;3481,62000
 813,07; 3431,150;    3,480;   -2,030;3427,67000
 813,40; 3430,930;   -4,990;    0,510;3435,92000
 813,72; 3395,500;    5,100;    2,300;3390,40000
 814,05; 3364,170;    3,130;  -10,090;3361,04000
 814,37; 3335,790;    7,280;   31,260;3328,51000
 814,70; 3355,070;   -9,200;   61,550;3364,27000
 815,02; 3367,840;    4,050;    5,520;3363,79000
 815,34; 3345,300;    2,490;    6,800;3342,81000
 815,67; 3380,600;   -3,680;   -0,140;3384,28000
 815,99; 3423,880;    4,840;    9,640;3419,04000
 816,32; 3521,880;   -0,100;    8,350;3521,98000
 816,64; 3610,670;    2,030;    2,190;3608,64000
 816,96; 3678,770;    1,140;    2,150;3677,63000
 817,29; 3778,760;    6,380;    5,700;3772,38000
 817,61; 3814,630;   -3,290;   -0,090;3817,92000
 817,94; 3909,250;    4,830;   -4,630;3904,42000
 818,26; 4016,400;    2,750;    0,990;4013,65000
 818,59; 4154,960;   -0,870;    5,280;4155,83000
 818,91; 4370,040;    1,340;    8,430;4368,70000
 819,23; 4768,310;   -1,380;    0,910;4769,69000
 819,56; 5262,340;    0,590;    3,240;5261,75000
 819,88; 6042,810;    0,650;   -7,150;6042,16000
 820,21; 7039,770;    3,880;    3,060;7035,89000
 820,53; 8207,440;   -1,410;   -2,300;8208,85000
 820,85; 9798,160;   -3,190;    0,780;9801,35000
 821,18;12922,620;   -1,950;    3,130;12924,57000
 821,50;18587,260;   -3,380;    3,530;18590,64000
 821,83;28092,370;    3,920;    7,580;28088,45000
 822,15;38767,230;    2,710;    7,190;38764,52000
 822,47;48078,790;    0,470;    7,210;48078,32000
 822,80;52175,570;    3,530;   -0,170;52172,04000
 823,12;49806,620;    1,650;   -0,530;49804,97000
 823,44;42964,560;    3,820;    3,590;42960,74000
 823,77;33601,290;   -0,910;   -0,400;33602,20000
 824,09;26992,590;   -0,730;    3,470;26993,32000
 824,42;21659,020;    0,380;    6,480;21658,64000
 824,74;17843,200;   -3,890;   -1,380;17847,09000
 825,06;15258,000;    1,990;    1,190;15256,01000
 825,39;13579,900;    5,100;    5,130;13574,80000
 825,71;12989,170;   -2,200;    6,440;12991,37000
 826,04;13405,010;   -2,520;    2,380;13407,53000
 826,36;15108,090;    5,350;    1,330;15102,74000
 826,68;17289,000;   -1,770;    6,520;17290,77000
 827,01;19361,710;   -2,350;    3,130;19364,06000
 827,33;20404,740;    0,430;    5,530;20404,31000
 827,65;19814,700;   -1,840;   -5,490;19816,54000
 827,98;17617,570;   -0,550;    0,550;17618,12000
 828,30;14732,690;   -1,890;    3,600;14734,58000
 828,62;11792,880;    0,440;    3,190;11792,44000
 828,95; 9496,410;    0,370;   -1,530;9496,04000
 829,27; 7889,470;    4,310;    2,900;7885,16000
 829,60; 6759,110;    2,450;   -9,270;6756,66000
 829,92; 6027,460;   -4,540;    2,030;6032,00000
 830,24; 5428,850;   -8,700;    2,390;5437,55000
 830,57; 4959,450;   -2,340;    2,880;4961,79000
 830,89; 4674,980;   -0,580;    4,220;4675,56000
 831,21; 4547,390;   -1,530;    4,540;4548,92000
 831,54; 4484,100;    1,980;   -1,460;4482,12000
 831,86; 4474,670;    2,770;    7,140;4471,90000
 832,18; 4590,410;    4,900;    2,490;4585,51000
 832,51; 5027,760;    8,750;   -0,150;5019,01000
 832,83; 5794,010;   -8,170;    3,110;5802,18000
 833,15; 7178,410;    5,720;    3,970;7172,69000
 833,48; 8933,970;    0,890;   -1,710;8933,08000
 833,80;10267,210;   -0,040;   -0,220;10267,25000
 834,12;10907,860;    0,510;   -0,460;10907,35000
 834,45;10415,990;    2,170;    5,760;10413,82000
 834,77; 9201,260;    2,270;   -0,960;9198,99000
 835,09; 7683,180;   -1,810;    1,700;7684,99000
 835,42; 6495,770;   -0,760;   10,140;6496,53000
 835,74; 5346,160;   -3,870;   -1,360;5350,03000
 836,06; 4595,760;   -2,700;    2,470;4598,46000
 836,39; 3982,200;   -3,310;    5,200;3985,51000
 836,71; 3611,710;    4,650;   -2,070;3607,06000
 837,03; 3304,830;   -4,320;    0,000;3309,15000
 837,36; 3032,280;   -5,870;    3,080;3038,15000
 837,68; 2837,040;    0,180;    5,970;2836,86000
 838,00; 2686,480;   -3,340;   -1,360;2689,82000
 838,33; 2600,380;    7,020;    4,250;2593,36000
 838,65; 2577,970;   -2,480;   -2,690;2580,45000
 838,97; 2620,950;    4,440;    5,140;2616,51000
 839,30; 2899,680;    1,450;    0,440;2898,23000
 839,62; 3400,160;    8,800;    2,150;3391,36000
 839,94; 3981,420;   -1,700;   -2,980;3983,12000
 840,27; 4527,480;   -2,230;   -0,440;4529,71000
 840,59; 4589,190;   -1,100;    4,530;4590,29000
 840,91; 4206,640;    2,500;    2,590;4204,14000
 841,24; 3571,310;    1,750;    1,140;3569,56000
 841,56; 2982,680;    0,970;    4,230;2981,71000
 841,88; 2571,090;    0,490;   -1,630;2570,60000
 842,21; 2236,980;    1,030;    1,280;2235,95000
 842,53; 2028,840;   -2,670;   -4,630;2031,51000
 842,85; 1890,000;    3,490;    6,080;1886,51000
 843,17; 1754,320;    2,290;    4,440;1752,03000
 843,50; 1656,910;    1,100;    4,940;1655,81000
 843,82; 1557,990;    2,180;    2,600;1555,81000
 844,14; 1490,090;    6,530;    5,270;1483,56000
 844,47; 1429,300;   -1,280;    1,790;1430,58000
 844,79; 1392,330;   -2,380;    1,140;1394,71000
 845,11; 1369,950;    3,100;   -1,210;1366,85000
 845,44; 1304,080;    3,600;    7,510;1300,48000
 845,76; 1279,090;    1,880;    3,750;1277,21000
 846,08; 1241,470;   -0,410;    6,200;1241,88000
 846,40; 1208,000;    4,530;   -6,100;1203,47000
 846,73; 1162,030;    2,530;   -0,440;1159,50000
 847,05; 1131,250;    1,160;   -3,930;1130,09000
 847,37; 1111,100;    7,330;   -3,200;1103,77000
 847,70; 1105,770;   -2,740;    1,910;1108,51000
 848,02; 1091,840;    3,830;   -3,330;1088,01000
 848,34; 1051,030;    7,500;    1,210;1043,53000
 848,66; 1061,110;    1,240;   -3,620;1059,87000
 848,99; 1046,210;    5,170;    1,730;1041,04000
 849,31; 1038,530;    3,370;    6,940;1035,16000
 849,63; 1018,320;   -0,360;   11,030;1018,68000
 849,95; 1003,810;   -0,350;    4,190;1004,16000
 850,28;  995,760;    0,920;   10,190;994,84000
 850,60;  975,990;    1,360;    7,070;974,63000
 850,92;  977,010;   -1,490;    7,530;978,50000
 851,25;  972,310;   -1,230;    0,310;973,54000
 851,57;  961,370;    4,460;    3,680;956,91000
 851,89;  928,920;    2,010;    1,220;926,91000
 852,21;  938,180;    0,490;   -0,890;937,69000
 852,54;  939,360;    2,610;    3,020;936,75000
 852,86;  944,100;    1,280;    3,860;942,82000
 853,18;  916,280;   -5,340;    4,090;921,62000
 853,50;  912,720;   -4,550;    4,840;917,27000
 853,83;  905,400;    5,040;   -4,430;900,36000
 854,15;  890,940;   -2,090;    7,480;893,03000
 854,47;  882,900;    5,890;    1,020;877,01000
 854,79;  873,680;   -0,810;   -2,600;874,49000
 855,12;  877,650;    2,060;   -5,380;875,59000
 855,44;  881,430;    1,070;   -1,860;880,36000
 855,76;  893,240;    2,970;   -5,690;890,27000
 856,08;  875,090;    3,840;    2,150;871,25000
 856,41;  866,260;    1,620;    4,050;864,64000
 856,73;  866,870;   -3,360;   -1,140;870,23000
 857,05;  867,800;    1,830;    5,900;865,97000
 857,37;  881,630;    3,590;    1,240;878,04000
 857,70;  903,970;    3,230;    2,220;900,74000
 858,02;  910,060;   -0,940;   -4,050;911,00000
 858,34;  900,690;    4,240;    7,220;896,45000
 858,66;  881,700;    0,040;   -1,720;881,66000
 858,98;  870,270;    0,130;    5,070;870,14000
 859,31;  856,970;    2,140;    2,270;854,83000
 859,63;  840,130;    7,480;    4,840;832,65000
 859,95;  849,620;   -1,110;    6,810;850,73000
 860,27;  844,240;    0,560;   -0,960;843,68000
 860,60;  827,880;   -6,660;    1,650;834,54000
 860,92;  835,380;    6,870;    0,130;828,51000
 861,24;  817,720;   -2,830;    5,340;820,55000
 861,56;  831,520;    3,790;    3,920;827,73000
 861,88;  821,080;   -2,030;    1,500;823,11000
 862,21;  809,250;   -2,020;    2,720;811,27000
 862,53;  809,930;    4,520;   -2,430;805,41000
 862,85;  837,580;    4,390;    4,010;833,19000
 863,17;  847,040;   -2,540;   -3,260;849,58000
 863,50;  870,790;   -0,540;   -2,870;871,33000
 863,82;  892,610;   -4,710;    6,340;897,32000
 864,14;  900,910;   -3,120;   -0,730;904,03000
 864,46;  918,990;   -5,990;    4,000;924,98000
 864,78;  947,640;    4,280;    4,580;943,36000
 865,11;  948,280;    0,090;    2,320;948,19000
 865,43;  949,120;    0,780;    6,840;948,34000
 865,75;  963,590;    1,390;   -3,770;962,20000
 866,07;  970,070;   -4,000;    7,260;974,07000
 866,39;  946,940;   -2,600;    3,140;949,54000
 866,72;  943,850;   -4,550;   -3,560;948,40000
 867,04;  945,490;   -4,820;    8,530;950,31000
 867,36;  943,090;   -6,310;    2,550;949,40000
 867,68;  948,690;   -3,960;    1,540;952,65000
 868,00;  950,660;    9,190;    6,000;941,47000
 868,33;  946,260;    0,150;    1,370;946,11000
 868,65;  975,340;    9,300;    2,270;966,04000
 868,97;  972,860;    1,360;   -2,340;971,50000
 869,29;  980,570;   -1,420;    4,240;981,99000
 869,61; 1001,430;    1,710;   -3,760;999,72000
 869,93; 1011,980;    2,370;    6,130;1009,61000
 870,26; 1014,730;   -0,900;    4,530;1015,63000
 870,58; 1028,360;    1,270;    7,600;1027,09000
 870,90; 1044,510;    5,060;    0,700;1039,45000
 871,22; 1063,210;   -1,290;    5,530;1064,50000
 871,54; 1060,260;    5,790;    4,880;1054,47000
 871,87; 1068,730;    1,740;    5,500;1066,99000
 872,19; 1103,770;    0,410;    4,240;1103,36000
 872,51; 1117,890;    2,820;    0,360;1115,07000
 872,83; 1163,670;    0,850;    6,040;1162,82000
 873,15; 1174,610;    5,220;    0,640;1169,39000
 873,47; 1191,060;    1,860;    4,410;1189,20000
 873,80; 1197,820;   -1,370;   -4,410;1199,19000
 874,12; 1242,180;   -2,340;    7,040;1244,52000
 874,44; 1241,910;   -0,940;    2,370;1242,85000
 874,76; 1237,680;    5,690;    5,730;1231,99000
 875,08; 1235,290;    2,860;   -0,210;1232,43000
 875,40; 1265,950;   -2,800;    0,330;1268,75000
 875,72; 1256,930;   -1,370;    4,210;1258,30000
 876,05; 1267,500;   -5,170;    5,710;1272,67000
 876,37; 1283,470;    9,180;    1,970;1274,29000
 876,69; 1305,530;    3,630;    0,080;1301,90000
 877,01; 1313,580;    3,760;    3,510;1309,82000
 877,33; 1383,280;   -6,160;    2,620;1389,44000
 877,65; 1426,050;    1,330;   -6,280;1424,72000
 877,98; 1523,910;   -2,230;    5,220;1526,14000
 878,30; 1646,120;   -2,520;    3,960;1648,64000
 878,62; 1873,060;   -3,820;    3,570;1876,88000
 878,94; 2175,700;   -2,330;    3,120;2178,03000
 879,26; 2672,220;    2,220;    0,100;2670,00000
 879,58; 3453,690;   -2,200;   -1,120;3455,89000
 879,90; 4931,600;    0,510;    4,670;4931,09000
 880,23; 7156,400;    3,940;    3,720;7152,46000
 880,55;10393,350;    2,460;   -2,700;10390,89000
 880,87;13715,790;    0,810;   -2,250;13714,98000
 881,19;16872,270;   -2,040;    2,930;16874,31000
 881,51;18180,110;   -3,890;    8,020;18184,00000
 881,83;17939,000;   -2,440;    4,950;17941,44000
 882,15;16187,070;   10,050;    7,710;16177,02000
 882,47;13997,560;    0,200;   -1,750;13997,36000
 882,80;11746,490;    0,850;    4,700;11745,64000
 883,12; 9884,090;    5,950;    0,730;9878,14000
 883,44; 8228,640;    1,090;   -8,280;8227,55000
 883,76; 6815,400;    4,860;   27,520;6810,54000
 884,08; 5790,160;    1,700;   67,760;5788,46000
 884,40; 4937,850;    2,340;   10,540;4935,51000
 884,72; 4255,700;    1,350;    5,960;4254,35000
 885,04; 3756,030;   -6,250;   -0,700;3762,28000
 885,36; 3320,780;    6,130;    6,500;3314,65000
 885,69; 3012,230;   -3,630;   -2,140;3015,86000
 886,01; 2782,150;   -2,650;    2,640;2784,80000
 886,33; 2590,860;   -4,800;    2,230;2595,66000
 886,65; 2433,410;    0,650;    0,590;2432,76000
 886,97; 2276,320;   -0,060;    1,360;2276,38000
 887,29; 2162,680;    1,370;   -1,600;2161,31000
 887,61; 2041,800;   -7,920;   -6,170;2049,72000
 887,93; 1932,950;    5,690;    9,420;1927,26000
 888,25; 1826,370;    0,280;   -0,100;1826,09000
 888,58; 1715,040;   -0,740;   -0,580;1715,78000
 888,90; 1649,410;   -0,810;    0,290;1650,22000
 889,22; 1599,680;    2,400;   -3,700;1597,28000
 889,54; 1615,690;    0,970;    2,240;1614,72000
 889,86; 1617,770;   -1,460;   -1,530;1619,23000
 890,18; 1634,460;    3,280;    2,810;1631,18000
 890,50; 1628,180;    0,420;    6,230;1627,76000
 890,82; 1615,270;   -2,330;   -1,410;1617,60000
 891,14; 1650,530;   -4,000;   -0,390;1654,53000
 891,46; 1704,370;   -6,970;    2,810;1711,34000
 891,78; 1736,300;   -4,780;    4,600;1741,08000
 892,11; 1807,570;   -1,070;    3,310;1808,64000
 892,43; 1954,070;    0,080;    2,180;1953,99000
 892,75; 2184,350;    2,060;    4,090;2182,29000
 893,07; 2570,600;    3,750;   -0,200;2566,85000
 893,39; 3170,040;   -5,310;    3,880;3175,35000
 893,71; 3962,980;    1,930;    4,750;3961,05000
 894,03; 4933,390;   -2,130;   -1,730;4935,52000
 894,35; 5773,280;    6,440;    6,250;5766,84000
 894,67; 6066,230;   -2,070;    0,550;6068,30000
 894,99; 5741,270;   -4,600;    6,420;5745,87000
 895,31; 5177,830;    1,170;    1,610;5176,66000
 895,63; 4404,240;   -0,510;    2,070;4404,75000
 895,95; 3741,600;    0,760;    3,120;3740,84000
 896,27; 3167,550;   -1,210;    8,000;3168,76000
 896,60; 2703,010;    0,250;    1,790;2702,76000
 896,92; 2371,980;    4,120;    6,780;2367,86000
 897,24; 2176,340;    5,820;   -5,020;2170,52000
 897,56; 2017,390;    0,980;    2,770;2016,41000
 897,88; 1933,860;   -2,510;    5,030;1936,37000
 898,20; 1858,170;    0,550;    7,660;1857,62000
 898,52; 1820,810;   -2,170;    1,130;1822,98000
 898,84; 1718,670;    4,000;   -1,390;1714,67000
 899,16; 1678,320;   -3,350;    0,930;1681,67000
 899,48; 1558,060;    3,220;    1,970;1554,84000
 899,80; 1518,070;    2,840;    0,840;1515,23000
 900,12; 1453,990;    2,810;    3,030;1451,18000
 900,44; 1437,910;    6,910;    3,150;1431,00000
 900,76; 1370,750;    3,340;    5,920;1367,41000
 901,08; 1365,830;   -0,860;    7,640;1366,69000
 901,40; 1375,040;    3,180;    4,670;1371,86000
 901,72; 1394,530;    4,580;   -2,790;1389,95000
 902,04; 1518,940;   -1,560;    1,410;1520,50000
 902,36; 1817,270;   -6,790;    7,150;1824,06000
 902,68; 2383,370;    5,710;    4,780;2377,66000
 903,00; 3457,330;    1,820;   -3,810;3455,51000
 903,32; 4924,500;   -0,070;    1,670;4924,57000
 903,64; 6353,110;    2,740;    3,330;6350,37000
 903,97; 7349,200;    0,550;    5,000;7348,65000
 904,29; 7518,750;    1,970;    1,550;7516,78000
 904,61; 6745,300;   -1,820;    6,880;6747,12000
 904,93; 5354,260;   -1,390;    5,120;5355,65000
 905,25; 4122,810;    0,800;    1,860;4122,01000
 905,57; 3217,280;    2,450;    2,510;3214,83000
 905,89; 2585,230;    5,100;   -1,740;2580,13000
 906,21; 2087,330;   -1,840;    0,180;2089,17000
 906,53; 1768,470;   -8,540;   -4,260;1777,01000
 906,85; 1533,580;   -3,920;   -8,460;1537,50000
 907,17; 1378,110;    4,590;    0,820;1373,52000
 907,49; 1257,070;    0,070;    5,010;1257,00000
 907,81; 1155,560;    5,970;    2,600;1149,59000
 908,13; 1071,940;    4,070;    2,000;1067,87000
 908,45; 1024,450;   -2,060;    3,660;1026,51000
 908,77;  977,360;   -4,580;   -1,140;981,94000
 909,09;  952,470;    4,770;    4,610;947,70000
 909,41;  924,770;   -2,670;    0,770;927,44000
 909,73;  914,980;    5,980;    1,290;909,00000
 910,05;  900,490;    5,620;    2,870;894,87000
 910,37;  892,030;    1,030;    7,460;891,00000
 910,69;  891,700;    0,690;    1,700;891,01000
 911,01;  918,370;    3,420;    1,770;914,95000
 911,33;  930,570;   -0,200;   -1,830;930,77000
 911,65;  967,910;    1,430;    8,470;966,48000
 911,97; 1019,660;   -0,040;    4,010;1019,70000
 912,29; 1100,980;   -5,700;   -3,610;1106,68000
 912,61; 1193,740;   -2,090;   -4,220;1195,83000
 912,93; 1361,490;    1,780;    1,200;1359,71000
 913,25; 1560,640;   -1,780;   -4,250;1562,42000
 913,57; 1922,750;    0,820;    0,210;1921,93000
 913,89; 2468,730;   -4,740;    0,030;2473,47000
 914,21; 3272,860;    3,720;    1,840;3269,14000
 914,53; 4404,680;   -0,030;    1,920;4404,71000
 914,85; 5550,400;   -0,360;   -0,400;5550,76000
 915,17; 6813,210;   -1,380;   -1,290;6814,59000
 915,48; 7654,040;   -0,740;    4,150;7654,78000
 915,80; 8008,160;    1,210;   -3,310;8006,95000
 916,12; 7550,510;    2,290;    3,350;7548,22000
 916,44; 6716,440;   -6,830;   -5,340;6723,27000
 916,76; 5703,380;   -1,190;    2,990;5704,57000
 917,08; 4675,520;   -5,130;   -5,170;4680,65000
 917,40; 3900,440;    1,110;    1,110;3899,33000
 917,72; 3266,980;    0,250;   -5,280;3266,73000
 918,04; 2830,460;   -5,210;   -2,980;2835,67000
 918,36; 2445,520;   -4,090;   -2,880;2449,61000
 918,68; 2190,270;    6,810;    5,410;2183,46000
 919,00; 1942,310;    4,680;    1,190;1937,63000
 919,32; 1763,030;   -2,810;    1,900;1765,84000
 919,64; 1664,530;    1,400;   -3,460;1663,13000
 919,96; 1569,590;   -1,110;    1,910;1570,70000
 920,28; 1489,200;    2,940;   -3,590;1486,26000
 920,60; 1397,850;   -4,620;    4,930;1402,47000
 920,92; 1327,760;    1,300;    4,080;1326,46000
 921,24; 1267,520;    7,290;    0,130;1260,23000
 921,56; 1197,950;   -2,070;    2,520;1200,02000
 921,88; 1129,030;   -1,010;   -1,030;1130,04000
 922,20; 1071,710;   -4,300;    7,080;1076,01000
 922,52;  986,180;   -1,680;    9,970;987,86000
 922,83;  941,120;    0,550;    1,080;940,57000
 923,15;  886,260;   -0,640;    6,100;886,90000
 923,47;  847,940;    3,610;    0,840;844,33000
 923,79;  812,720;   -2,490;    5,060;815,21000
 924,11;  781,890;   -6,300;   -4,570;788,19000
 924,43;  743,620;    2,250;   -1,790;741,37000
 924,75;  721,380;   -3,520;    6,740;724,90000
 925,07;  676,520;    3,450;    9,210;673,07000
 925,39;  645,320;    3,840;    3,200;641,48000
 925,71;  629,070;    2,850;    1,310;626,22000
 926,03;  610,250;    1,550;    4,700;608,70000
 926,35;  586,670;    4,750;    5,760;581,92000
 926,67;  559,020;   -5,410;    0,120;564,43000
 926,99;  551,360;   -2,040;    5,140;553,40000
 927,30;  534,610;    6,230;    4,580;528,38000
 927,62;  528,760;    5,230;    4,230;523,53000
 927,94;  501,530;   -1,470;   -8,900;503,00000
 928,26;  505,980;   -1,880;    3,040;507,86000
 928,58;  500,120;    0,550;    1,360;499,57000
 928,90;  513,890;    5,160;    9,150;508,73000
 929,22;  505,690;   -4,610;   -6,500;510,30000
 929,54;  523,150;   -0,500;    6,830;523,65000
 929,86;  523,230;    1,820;   -4,160;521,41000
 930,18;  530,470;   -2,990;    5,680;533,46000
 930,50;  524,660;    5,470;    1,000;519,19000
 930,81;  532,280;   -1,830;   -3,660;534,11000
 931,13;  515,670;   -8,020;    2,320;523,69000
 931,45;  517,820;   -3,290;    0,830;521,11000
 931,77;  504,360;   -0,410;   -0,410;504,77000
 932,09;  481,230;   -1,740;   -0,440;482,97000
 932,41;  489,520;   -0,430;    2,300;489,95000
 932,73;  460,050;   -0,700;   -1,930;460,75000
 933,05;  460,770;    0,000;    1,440;460,77000
 933,37;  445,350;   -2,260;    3,660;447,61000
 933,68;  442,010;   -3,300;    4,000;445,31000
 934,00;  442,250;   -1,860;   -0,180;444,11000
 934,32;  432,460;    6,280;    1,170;426,18000
 934,64;  446,780;   -1,810;    6,270;448,59000
 934,96;  448,290;    5,870;    7,970;442,42000
 935,28;  468,950;    4,940;    9,960;464,01000
 935,60;  496,880;   -4,640;    5,020;501,52000
 935,92;  557,340;    2,720;   -3,830;554,62000
 936,24;  608,410;    8,470;   -4,530;599,94000
 936,55;  694,770;   -6,080;    5,410;700,85000
 936,87;  758,240;   -3,580;    2,940;761,82000
 937,19;  807,160;    0,410;    2,540;806,75000
 937,51;  841,810;    1,670;    5,580;840,14000
 937,83;  826,090;    3,020;    7,720;823,07000
 938,15;  800,020;    1,330;    3,230;798,69000
 938,47;  749,160;    4,170;    3,770;744,99000
 938,78;  717,720;   -2,500;    3,280;720,22000
 939,10;  682,360;    4,910;    2,940;677,45000
 939,42;  641,400;   -5,920;   -0,240;647,32000
 939,74;  620,890;   -2,980;    8,320;623,87000
 940,06;  603,280;   -2,880;   -0,630;606,16000
 940,38;  587,550;   -0,280;    2,520;587,83000
 940,70;  549,140;    1,500;    5,220;547,64000
 941,02;  536,780;    6,270;   -0,160;530,51000
 941,33;  509,870;    2,340;    0,640;507,53000
 941,65;  486,350;    2,640;    4,010;483,71000
 941,97;  458,060;   -4,630;    6,860;462,69000
 942,29;  437,370;    2,550;   -2,390;434,82000
 942,61;  435,480;    0,490;    3,980;434,99000
 942,93;  443,090;   -2,020;    4,480;445,11000
 943,24;  440,160;    2,590;   -7,500;437,57000
 943,56;  442,090;    6,070;    5,150;436,02000
 943,88;  449,840;    2,840;   17,720;447,00000
 944,20;  457,610;    1,030;   -0,530;456,58000
 944,52;  468,940;   -6,570;    3,620;475,51000
 944,84;  470,190;    0,210;    5,120;469,98000
 945,15;  474,300;    2,080;    3,360;472,22000
 945,47;  479,410;   -3,570;    7,050;482,98000
 945,79;  460,110;   -0,140;    4,370;460,25000
 946,11;  462,920;    1,130;    4,410;461,79000
 946,43;  448,700;    5,430;    3,440;443,27000
 946,75;  461,430;    5,710;    0,920;455,72000
 947,06;  448,740;   -0,290;    5,020;449,03000
 947,38;  463,250;   -1,570;    1,140;464,82000
 947,70;  478,630;   -1,200;    0,390;479,83000
 948,02;  492,460;    2,540;    4,390;489,92000
 948,34;  510,320;    1,220;    1,470;509,10000
 948,66;  539,770;    2,010;    6,230;537,76000
 948,97;  563,260;   -4,140;    1,430;567,40000
 949,29;  603,820;   -0,200;    5,970;604,02000
 949,61;  641,110;    4,290;    6,860;636,82000
 949,93;  680,730;   -4,680;    2,080;685,41000
 950,25;  735,010;    3,500;    0,480;731,51000
 950,56;  770,670;    5,950;    2,230;764,72000
 950,88;  781,590;    3,440;    2,030;778,15000
 951,20;  804,590;    4,310;    5,930;800,28000
 951,52;  771,570;    2,320;   -1,300;769,25000
 951,84;  736,310;   -4,060;    7,660;740,37000
 952,15;  678,490;    2,450;   -6,660;676,04000
 952,47;  640,970;   -4,170;   26,650;645,14000
 952,79;  588,700;   -5,610;   70,500;594,31000
 953,11;  563,080;   -0,640;    4,370;563,72000
 953,43;  514,110;   -1,700;    4,440;515,81000
 953,74;  472,600;    0,360;    0,090;472,24000
 954,06;  446,620;   -5,800;    1,240;452,42000
 954,38;  414,490;    4,290;    3,520;410,20000
 954,70;  389,980;    1,430;   -3,320;388,55000
 955,02;  370,840;    0,820;    6,550;370,02000
 955,33;  341,070;    2,490;    0,140;338,58000
 955,65;  326,540;    1,840;    3,220;324,70000
 955,97;  312,960;    8,580;   -4,750;304,38000
 956,29;  295,820;   -0,810;    4,320;296,63000
 956,60;  285,260;   -0,080;   -1,420;285,34000
 956,92;  270,350;    1,830;    1,930;268,52000
 957,24;  260,690;    0,680;    3,920;260,01000
 957,56;  258,560;    0,270;   -3,610;258,29000
 957,88;  258,320;    7,280;    0,220;251,04000
 958,19;  244,580;   -2,140;    5,190;246,72000
 958,51;  236,560;    2,130;   -1,420;234,43000
 958,83;  241,060;   -3,450;    7,070;244,51000
 959,15;  230,720;    1,480;   -2,300;229,24000
 959,46;  236,640;   -6,820;    3,950;243,46000
 959,78;  220,630;    4,490;   -1,470;216,14000
 960,10;  217,430;    0,160;    9,230;217,27000
 960,42;  222,940;   -2,110;    1,840;225,05000
 960,73;  213,720;    4,900;    4,250;208,82000
 961,05;  207,800;    5,140;    3,320;202,66000
 961,37;  213,280;   -5,820;    5,640;219,10000
 961,69;  210,060;    0,630;   -1,680;209,43000
 962,00;  212,340;    3,050;    5,990;209,29000
 962,32;  207,700;    0,580;   -3,410;207,12000
 962,64;  217,380;   -1,380;    0,740;218,76000
 962,96;  206,500;    1,000;    6,930;205,50000
 963,27;  200,890;    5,710;    5,840;195,18000
 963,59;  204,920;    2,940;    0,590;201,98000
 963,91;  209,650;    3,560;    2,400;206,09000
 964,23;  213,310;    2,830;    1,350;210,48000
 964,54;  209,980;   -2,860;    1,850;212,84000
 964,86;  218,330;   -3,030;    1,280;221,36000
 965,18;  220,650;   -0,970;   -0,490;221,62000
 965,50;  230,440;    1,080;   10,100;229,36000
 965,81;  247,580;    0,660;    1,490;246,92000
 966,13;  250,860;    0,940;    1,680;249,92000
 966,45;  270,240;   -2,860;    6,590;273,10000
 966,77;  280,790;   -2,140;   -2,750;282,93000
 967,08;  289,850;    5,830;    6,030;284,02000
 967,40;  316,720;    0,210;    3,480;316,51000
 967,72;  347,550;    2,400;    8,100;345,15000
 968,03;  363,310;   -1,680;   -0,820;364,99000
 968,35;  375,100;    1,000;    4,100;374,10000
 968,67;  379,560;    2,270;   -1,720;377,29000
 968,99;  400,820;    0,700;    5,390;400,12000
 969,30;  403,840;    3,980;    1,920;399,86000
 969,62;  401,780;    0,860;    3,540;400,92000
 969,94;  408,140;    0,030;    3,150;408,11000
 970,25;  420,770;   -2,740;    2,710;423,51000
 970,57;  428,300;    4,100;    6,400;424,20000
 970,89;  419,070;   -6,190;    0,790;425,26000
 971,21;  428,140;   -0,540;    3,880;428,68000
 971,52;  423,620;    3,490;   -0,440;420,13000
 971,84;  421,800;   -2,950;    1,850;424,75000
 972,16;  414,480;   -0,310;    5,220;414,79000
 972,47;  399,160;   -1,920;    6,420;401,08000
 972,79;  391,150;    4,120;    7,170;387,03000
 973,11;  362,410;   -0,830;    0,020;363,24000
 973,42;  361,100;   -4,930;    5,390;366,03000
 973,74;  347,070;   -2,340;   -3,010;349,41000
 974,06;  342,490;    1,400;    0,150;341,09000
 974,38;  336,760;    6,450;    1,500;330,31000
 974,69;  342,160;    6,830;    7,170;335,33000
 975,01;  340,680;    2,930;   -1,840;337,75000
 975,33;  330,520;    3,080;    3,500;327,44000
 975,64;  337,850;    4,850;    2,850;333,00000
 975,96;  351,810;    0,950;    8,230;350,86000
 976,28;  376,960;  -10,620;    1,250;387,58000
 976,59;  412,380;    1,360;    3,380;411,02000
 976,91;  466,420;   -0,490;    3,050;466,91000
 977,23;  573,870;    3,490;    2,010;570,38000
 977,54;  732,000;    0,060;   -1,890;731,94000
 977,86;  975,390;   -2,150;    4,900;977,54000
 978,18; 1402,250;   -0,240;    6,000;1402,49000
 978,49; 1939,620;    0,960;    3,760;1938,66000
 978,81; 2453,970;    0,840;    1,210;2453,13000
 979,13; 2887,040;    1,540;    4,900;2885,50000
 979,44; 3003,460;    0,630;    3,830;3002,83000
 979,76; 2848,550;   -2,540;    2,860;2851,09000
 980,08; 2383,710;   -1,640;    3,250;2385,35000
 980,39; 1931,420;    1,340;    2,370;1930,08000
 980,71; 1469,400;    0,640;   -0,310;1468,76000
 981,03; 1122,720;    1,680;    9,190;1121,04000
 981,34;  864,160;    0,020;    3,500;864,14000
 981,66;  692,730;    1,040;    7,280;691,69000
 981,98;  575,690;   -7,490;   -1,460;583,18000
 982,29;  489,860;   -5,760;    1,360;495,62000
 982,61;  420,450;    0,920;    1,990;419,53000
 982,93;  377,210;    2,410;    2,550;374,80000
 983,24;  344,860;   -5,300;    4,800;350,16000
 983,56;  319,030;   -4,260;    2,590;323,29000
 983,88;  285,350;   -0,460;    2,770;285,81000
 984,19;  284,770;   -1,360;    3,940;286,13000
 984,51;  264,580;   -4,180;    7,800;268,76000
 984,83;  256,210;   -2,050;   -1,690;258,26000
 985,14;  251,800;    1,630;    6,820;250,17000
 985,46;  249,240;    0,910;    1,310;248,33000
 985,77;  233,320;    0,130;    0,860;233,19000
 986,09;  233,250;   -3,190;    6,720;236,44000
 986,41;  238,580;    3,950;    2,920;234,63000
 986,72;  257,620;   -2,590;    2,370;260,21000
 987,04;  277,470;    3,160;   -1,380;274,31000
 987,36;  289,500;    8,940;    3,860;280,56000
 987,67;  295,910;   -2,880;    0,400;298,79000
 987,99;  310,930;    3,650;    5,640;307,28000
 988,30;  337,820;    1,200;    0,440;336,62000
 988,62;  377,730;   -3,910;    3,210;381,64000
 988,94;  405,810;   -3,890;    2,220;409,70000
 989,25;  460,720;   -1,350;    2,400;462,07000
 989,57;  565,080;    1,460;    1,860;563,62000
 989,89;  728,940;   -1,650;    1,690;730,59000
 990,20;  995,620;   -1,720;    4,810;997,34000
 990,52; 1279,660;   -7,990;    0,240;1287,65000
 990,83; 1612,180;    0,650;    2,090;1611,53000
 991,15; 1920,890;   -2,510;   -3,520;1923,40000
 991,47; 2139,270;    0,660;    4,000;2138,61000
 991,78; 2204,260;    2,280;    5,280;2201,98000
 992,10; 2077,690;    1,310;   -4,070;2076,38000
 992,41; 1826,340;    0,500;   -3,110;1825,84000
 992,73; 1555,330;    5,020;    0,840;1550,31000
 993,05; 1299,150;    7,830;    1,940;1291,32000
 993,36; 1061,860;    0,240;   -3,720;1061,62000
 993,68;  870,160;   -0,410;   -0,870;870,57000
 993,99;  722,680;    0,070;    1,310;722,61000
 994,31;  623,320;    0,680;    2,000;622,64000
 994,63;  535,750;   -2,470;   -0,340;538,22000
 994,94;  477,140;    2,800;    8,160;474,34000
 995,26;  422,420;   -2,760;   -1,570;425,18000
 995,57;  383,620;   -6,960;    0,710;390,58000
 995,89;  347,840;    7,260;   -2,830;340,58000
 996,21;  316,720;    1,440;   -1,460;315,28000
 996,52;  297,770;   -2,830;    0,900;300,60000
 996,84;  268,970;    6,430;    2,890;262,54000
 997,15;  256,140;   -1,270;   -0,520;257,41000
 997,47;  251,140;    0,300;    8,460;250,84000
 997,78;  239,360;    0,340;    0,730;239,02000
 998,10;  221,110;   -1,820;    3,890;222,93000
 998,42;  215,090;    0,770;    0,670;214,32000
 998,73;  196,100;    0,200;    7,070;195,90000
 999,05;  202,560;   -3,600;    5,320;206,16000
 999,36;  193,350;   -1,030;    1,530;194,38000
 999,68;  179,750;    5,680;    0,710;174,07000
 999,99;  168,160;    5,510;    3,130;162,65000
1000,31;  164,080;   -2,860;   -1,420;166,94000
1000,63;  165,090;   -0,660;    2,310;165,75000
1000,94;  172,770;   -1,280;    7,480;174,05000
1001,26;  156,940;    1,590;    2,220;155,35000
1001,57;  155,850;   -0,080;    6,500;155,93000
1001,89;  165,920;    6,440;    3,430;159,48000
1002,20;  161,880;   -1,060;   -1,460;162,94000
1002,52;  167,590;    1,060;    4,410;166,53000
1002,83;  158,820;   -3,120;    0,040;161,94000
1003,15;  161,200;    5,770;    4,330;155,43000
1003,47;  144,110;    2,430;    1,340;141,68000
1003,78;  142,510;   -3,380;   -3,780;145,89000
1004,10;  134,480;    0,290;    5,010;134,19000
1004,41;  140,550;   -2,000;    1,980;142,55000
1004,73;  133,470;    0,550;   -1,970;132,92000
1005,04;  138,390;    1,440;    3,890;136,95000
1005,36;  124,310;   -0,930;    6,000;125,24000
1005,67;  122,840;    1,170;    5,080;121,67000
1005,99;  129,270;   -0,400;    3,780;129,67000
1006,30;  132,160;   -4,490;    2,660;136,65000
1006,62;  130,510;   -5,980;   -6,770;136,49000
1006,93;  130,500;   -0,040;    1,250;130,54000
1007,25;  131,190;   -1,650;    1,420;132,84000
1007,57;  133,560;    0,470;   -0,740;133,09000
1007,88;  134,590;   -7,850;   -3,580;142,44000
1008,20;  142,760;   -0,260;    5,380;143,02000
1008,51;  146,040;   -0,500;    1,200;146,54000
1008,83;  159,970;   -4,510;    5,790;164,48000
1009,14;  175,680;    0,070;   -2,030;175,61000
1009,46;  197,860;    3,010;    4,690;194,85000
1009,77;  213,140;   -0,900;   -7,260;214,04000
1010,09;  223,440;    0,320;    3,570;223,12000
1010,40;  229,220;    4,010;   -1,220;225,21000
1010,72;  240,190;    0,210;    2,660;239,98000
1011,03;  242,020;    0,360;    0,950;241,66000
1011,35;  234,900;    5,180;    4,240;229,72000
1011,66;  220,900;    3,370;    1,840;217,53000
1011,98;  214,930;    1,620;   -0,380;213,31000
1012,29;  202,440;   -0,030;    2,490;202,47000
1012,61;  191,290;    1,510;   10,310;189,78000
1012,92;  185,840;   -1,700;   -1,120;187,54000
1013,24;  168,870;   -4,050;    6,920;172,92000
1013,55;  156,910;   -1,410;   -0,760;158,32000
1013,87;  148,590;   -1,230;    3,010;149,82000
1014,18;  139,110;    1,480;    7,310;137,63000
1014,50;  133,650;    4,760;    1,350;128,89000
1014,81;  123,790;    0,010;    1,440;123,78000
1015,13;  117,950;   -1,120;    4,660;119,07000
1015,44;  105,360;   -0,430;    0,190;105,79000
1015,76;   98,920;    1,430;    3,170;97,49000
1016,07;  100,100;    3,590;   -0,740;96,51000
1016,39;   84,360;   -3,640;    0,450;88,00000
1016,70;   83,650;    4,910;    2,240;78,74000
1017,02;   80,060;   -4,580;    4,580;84,64000
1017,33;   67,840;    3,900;   11,760;63,94000
1017,65;   68,110;    0,220;    4,700;67,89000
1017,96;   59,460;    0,800;    7,610;58,66000
1018,28;   59,880;    0,460;    7,260;59,42000
1018,59;   60,650;    2,960;   -0,250;57,69000
1018,90;   55,630;    5,130;    2,730;50,50000
1019,22;   54,200;   -0,710;   -1,080;54,91000
1019,53;   50,250;    1,410;    7,050;48,84000
1019,85;   52,750;    2,160;    3,410;50,59000
1020,16;   43,110;    0,190;   -2,870;42,92000
1020,48;   43,500;   -2,160;   26,180;45,66000
1020,79;   40,730;    3,760;   60,410;36,97000
1021,11;   42,220;   -2,470;    5,060;44,69000
1021,42;   36,580;    7,240;    5,330;29,34000
1021,74;   37,980;   -3,900;    4,440;41,88000
1022,05;   40,660;   -2,710;    6,610;43,37000
1022,37;   29,530;   -0,470;    0,670;30,00000
1022,68;   31,430;    3,590;    1,390;27,84000
1022,99;   32,270;   -5,050;    6,190;37,32000
1023,31;   38,920;   -1,460;   -1,520;40,38000
1023,62;   29,270;   -5,260;    0,500;34,53000
1023,94;   23,620;    2,360;   -2,080;21,26000
1024,25;   19,140;    1,060;   -2,040;18,08000
1024,57;   28,940;    2,580;    4,320;26,36000
1024,88;   30,600;   -2,140;    2,020;32,74000
1025,20;   23,720;   -1,290;    6,700;25,01000
1025,51;   26,420;    0,920;   -0,060;25,50000
1025,82;   25,290;    6,760;   -2,000;18,53000
1026,14;   18,640;    1,810;   -1,370;16,83000
1026,45;   32,360;   -3,200;   -2,760;35,56000
1026,77;   16,780;   -0,810;    2,750;17,59000
1027,08;   21,870;    3,170;    8,290;18,70000
1027,40;   19,150;   -1,690;   -2,740;20,84000
1027,71;   24,780;    3,970;    6,220;20,81000
1028,02;   18,790;    4,500;    1,380;14,29000
1028,34;   19,840;   -2,590;    9,530;22,43000
1028,65;   11,750;    2,160;   -4,500; 9,59000
1028,97;   23,740;    2,630;    6,610;21,11000
1029,28;   19,670;   -0,610;    3,430;20,28000
1029,60;   15,890;    0,280;    0,310;15,61000
1029,91;   13,510;   -0,320;   -0,630;13,83000
1030,22;   16,150;    6,820;    0,930; 9,33000
1030,54;   13,340;    2,830;   -0,540;10,51000
1030,85;   17,110;    4,760;    0,890;12,35000
1031,17;   13,140;   -6,980;    5,870;20,12000
1031,48;   22,590;    5,890;    1,980;16,70000
1031,79;   19,580;   -1,980;   -1,570;21,56000
1032,11;   11,820;   -1,800;    1,520;13,62000
1032,42;   17,280;    5,260;    5,190;12,02000
1032,74;   16,810;    5,150;    2,420;11,66000
1033,05;   15,380;   -1,420;    2,460;16,80000
1033,36;   16,480;   10,830;    7,720; 5,65000
1033,68;   11,790;   -3,030;    4,620;14,82000
1033,99;   14,050;    2,290;    0,660;11,76000
1034,31;   11,350;    3,550;    7,430; 7,80000
1034,62;    8,980;    1,090;    5,230; 7,89000
1034,93;   14,060;   -2,430;    2,760;16,49000
1035,25;   13,230;   -1,530;   -2,310;14,76000
1035,56;    2,430;   -0,210;    2,050; 2,64000
1035,88;    6,390;   -4,080;   12,450;10,47000
1036,19;    1,230;   -1,820;   -0,290; 3,05000
1036,50;   11,280;    8,470;    8,070; 2,81000
1036,82;    1,690;   -0,730;    2,310; 2,42000
1037,13;   -1,640;    1,620;    5,200;-3,26000
1037,44;    7,410;   -1,990;    2,980; 9,40000
1037,76;    4,180;    1,710;    9,840; 2,47000
1038,07;    1,190;   -3,080;    2,210; 4,27000
1038,39;   11,190;   -1,070;    5,820;12,26000
1038,70;    5,530;   -2,740;    3,330; 8,27000
1039,01;    7,260;    1,230;    0,130; 6,03000
1039,33;   -2,830;   -2,790;    5,720;-0,04000
1039,64;    4,310;    1,720;    9,130; 2,59000
1039,95;   -4,060;   -3,600;    4,470;-0,46000
1040,27;   -8,300;    4,360;    2,830;-12,66000
1040,58;   -1,740;    2,500;    7,810;-4,24000
1040,89;   -1,050;    3,300;   -2,340;-4,35000
1041,21;   -9,950;   -0,860;   -1,780;-9,09000
1041,52;    1,650;    0,030;    4,210; 1,62000
1041,83;   -3,850;   -0,700;    2,130;-3,15000
1042,15;    0,380;    0,850;    6,540;-0,47000
1042,46;   -1,970;    2,800;   -2,990;-4,77000
1042,78;   -6,650;    2,340;   -3,930;-8,99000
1043,09;   -0,500;   -0,670;    0,590; 0,17000
1043,40;   -1,210;    5,630;    1,700;-6,84000
1043,72;   -0,860;   -6,010;    0,370; 5,15000
1044,03;   -5,910;    1,830;   -0,910;-7,74000
1044,34;   -5,250;    4,100;    1,660;-9,35000
1044,66;   -1,990;   -2,390;    1,050; 0,40000
1044,97;   -3,970;    5,400;    2,440;-9,37000
1045,28;   -6,540;   -0,930;    1,720;-5,61000
1045,60;   -4,290;   -4,150;    5,200;-0,14000
1045,91;    7,310;   -3,240;    3,540;10,55000
1046,22;   -3,940;   -3,960;    2,790; 0,02000
1046,54;    1,660;    7,170;    0,440;-5,51000
1046,85;   -6,720;   -4,630;    2,550;-2,09000
1047,16;   -4,030;    4,640;   -0,030;-8,67000
1047,48;   -4,030;   -2,080;    4,270;-1,95000
1047,79;    2,270;    4,690;   10,710;-2,42000
1048,10;   -1,270;    2,640;    4,820;-3,91000
1048,42;   -1,890;    3,060;    5,900;-4,95000
1048,73;   -2,900;    5,680;    1,280;-8,58000
1049,04;    0,270;    3,960;    9,780;-3,69000
1049,35;   -0,180;   -4,990;    4,990; 4,81000
1049,67;    4,680;    2,750;    2,720; 1,93000
1049,98;   -1,060;   -5,640;    2,540; 4,58000
1050,29;    3,980;   -1,900;    1,410; 5,88000
1050,61;   -1,010;   -1,090;    8,130; 0,08000
1050,92;    9,730;    3,890;    4,340; 5,84000
1051,23;    5,880;    5,190;    0,190; 0,69000
1051,55;   10,230;    4,650;   -0,340; 5,58000
1051,86;   -0,220;    6,210;   -1,240;-6,43000
1052,17;    5,210;    2,060;    4,800; 3,15000
1052,49;   -1,180;   -0,220;    1,340;-0,96000
1052,80;    7,260;   -0,990;   -1,480; 8,25000
1053,11;    2,920;   -0,230;    3,140; 3,15000
1053,42;    0,050;    5,050;    3,700;-5,00000
1053,74;   -5,450;    1,210;    2,760;-6,66000
1054,05;    1,430;    0,290;   -4,820; 1,14000
1054,36;   -6,250;    2,050;    5,420;-8,30000
1054,68;   -5,470;   -2,750;   -4,600;-2,72000
1054,99;   -6,400;   -3,700;    1,680;-2,70000
1055,30;   -8,560;    4,450;    3,390;-13,01000
1055,61;   -7,850;   -4,310;    2,920;-3,54000
1055,93;  -13,040;   -8,110;    1,720;-4,93000
1056,24;  -14,910;    4,950;    4,360;-19,86000
1056,55;  -15,240;    5,260;   -1,540;-20,50000
1056,87;   -3,130;   -2,540;    1,730;-0,59000
1057,18;  -12,840;    2,560;    2,860;-15,40000
1057,49;  -12,650;   -4,640;   -0,240;-8,01000
1057,80;  -11,590;    3,940;    6,020;-15,53000
1058,12;   -4,540;    1,410;    0,150;-5,95000
1058,43;  -18,200;    4,770;    2,730;-22,97000
1058,74;   -9,210;    5,660;    4,670;-14,87000
1059,05;  -17,690;    3,900;    1,250;-21,59000
1059,37;   -9,190;    4,510;   -5,950;-13,70000
1059,68;   -6,600;    3,610;    4,860;-10,21000
1059,99;  -14,610;    1,530;    0,230;-16,14000
1060,30;  -12,630;   -3,820;    3,520;-8,81000
1060,62;  -14,510;   -3,840;   -2,970;-10,67000
1060,93;   -7,610;   -5,050;   -2,820;-2,56000
1061,24;  -10,940;   -5,380;    4,750;-5,56000
1061,55;   -9,020;    4,250;    0,120;-13,27000
1061,87;  -19,830;   -1,870;    4,890;-17,96000
1062,18;  -19,010;    1,170;    7,090;-20,18000
1062,49;  -13,320;   -2,300;    2,190;-11,02000
1062,80;  -14,320;    4,320;    5,760;-18,64000
1063,12;  -12,330;   -0,180;   -2,620;-12,15000
1063,43;  -16,810;   -1,880;    7,540;-14,93000
1063,74;  -14,170;    0,790;    6,880;-14,96000
1064,05;  -15,250;    6,300;   12,260;-21,55000
1064,37;  -22,370;   -5,980;    2,210;-16,39000
1064,68;  -15,840;    2,070;   -0,210;-17,91000
1064,99;  -22,660;   -0,270;   -3,100;-22,39000
1065,30;   -8,930;    8,020;    3,490;-16,95000
1065,62;  -19,780;   -1,160;    0,580;-18,62000
1065,93;  -21,230;    3,000;    2,360;-24,23000
1066,24;  -10,610;    2,740;    0,570;-13,35000
1066,55;  -24,330;    3,660;    6,170;-27,99000
1066,86;  -24,420;   -2,710;    1,430;-21,71000
1067,18;  -16,380;    3,140;    0,150;-19,52000
1067,49;  -20,410;    4,070;    0,560;-24,48000
1067,80;  -21,800;    5,850;    5,750;-27,65000
1068,11;  -23,270;    2,620;    4,740;-25,89000
1068,43;  -22,170;   -2,960;   -0,230;-19,21000
1068,74;  -22,480;   -0,020;    3,680;-22,46000
1069,05;  -17,290;    3,860;    4,420;-21,15000
1069,36;  -21,760;   -2,730;   -0,020;-19,03000
1069,67;  -20,410;    0,140;    2,850;-20,55000
1069,99;  -16,160;   -1,030;    4,080;-15,13000
1070,30;  -16,790;   -0,990;    1,950;-15,80000
1070,61;  -20,070;   -1,570;    6,290;-18,50000
1070,92;  -19,660;    2,490;    2,300;-22,15000
1071,23;  -17,960;    3,480;    2,360;-21,44000
1071,55;  -10,150;    5,270;    6,030;-15,42000
1071,86;  -20,950;    0,590;   11,970;-21,54000
1072,17;  -20,260;    3,010;    1,080;-23,27000
1072,48;  -17,820;    5,350;    1,960;-23,17000
1072,79;  -20,910;   -2,920;    6,500;-17,99000
1073,11;  -20,660;    2,980;   -2,750;-23,64000
1073,42;  -19,130;   -0,150;    4,130;-18,98000
1073,73;  -15,410;   -1,310;   -3,000;-14,10000
1074,04;  -17,370;    2,170;    0,380;-19,54000
1074,35;  -22,060;   -0,730;   -2,880;-21,33000
1074,67;  -14,920;    2,150;    2,240;-17,07000
1074,98;  -16,110;   -0,620;   -8,040;-15,49000
1075,29;  -18,620;   -0,160;    5,250;-18,46000
1075,60;  -23,120;    6,150;   -5,520;-29,27000
1075,91;  -18,100;    3,750;    5,620;-21,85000
1076,22;  -21,930;    1,910;   -0,620;-23,84000
1076,54;  -21,710;    0,690;    7,550;-22,40000
1076,85;  -17,450;   -0,790;   -1,390;-16,66000
1077,16;  -18,390;    5,710;    1,310;-24,10000
1077,47;  -19,440;    2,930;    2,610;-22,37000
1077,78;   -7,660;   -0,790;    4,900;-6,87000
1078,09;  -15,290;    5,310;    2,500;-20,60000
1078,41;  -23,040;    3,690;   -0,680;-26,73000
1078,72;  -18,890;   -2,700;   -0,660;-16,19000
1079,03;  -13,300;   -5,800;    5,940;-7,50000
1079,34;  -16,790;    0,220;    3,580;-17,01000
1079,65;  -19,620;    1,600;    5,850;-21,22000
1079,96;  -25,320;   -2,690;    6,520;-22,63000
1080,28;  -16,470;    0,670;   -3,690;-17,14000
1080,59;  -20,020;   -0,830;   -2,370;-19,19000
1080,90;  -22,850;    6,660;    4,310;-29,51000
1081,21;  -18,510;    2,800;    5,260;-21,31000
1081,52;  -12,210;    2,210;    3,780;-14,42000
1081,83;   -8,520;   -2,010;    0,350;-6,51000
1082,14;  -13,960;    2,260;   -1,750;-16,22000
1082,46;  -12,560;    2,620;   -0,730;-15,18000
1082,77;  -10,530;   -3,060;    4,680;-7,47000
1083,08;  -13,230;   -2,150;   -4,540;-11,08000
1083,39;   -4,810;   -2,770;    7,470;-2,04000
1083,70;  -17,990;    1,480;    7,780;-19,47000
1084,01;  -12,880;    0,350;    6,430;-13,23000
1084,32;  -19,030;    5,000;   -0,350;-24,03000
1084,63;  -16,370;    1,590;    6,590;-17,96000
1084,95;  -18,660;   -1,220;   -0,160;-17,44000
1085,26;  -23,520;   -4,850;   -2,690;-18,67000
1085,57;  -15,410;   -0,470;   -3,770;-14,94000
1085,88;  -22,510;    4,460;    6,320;-26,97000
1086,19;  -14,690;   -1,210;   -6,030;-13,48000
1086,50;  -16,910;   -2,110;    1,510;-14,80000
1086,81;  -19,020;   -0,550;   -2,890;-18,47000
1087,12;  -23,760;    3,500;    5,810;-27,26000
1087,44;  -24,840;    3,150;  -11,430;-27,99000
1087,75;  -21,290;    5,180;   35,730;-26,47000
1088,06;  -24,840;    4,350;   58,240;-29,19000
1088,37;  -15,250;    1,750;    0,810;-17,00000
1088,68;  -17,790;   -4,350;    4,570;-13,44000
1088,99;  -17,610;    1,050;    0,690;-18,66000
1089,30;  -11,530;   -0,330;   -4,260;-11,20000
1089,61;  -20,950;   -0,840;    2,990;-20,11000
1089,92;  -12,730;    0,250;    2,260;-12,98000
1090,23;  -18,890;    2,900;    7,860;-21,79000
1090,55;  -23,280;    2,980;    1,670;-26,26000
1090,86;  -18,270;   -2,350;    6,130;-15,92000
1091,17;  -23,080;    0,490;   -5,070;-23,57000
1091,48;  -12,700;   -0,740;    8,390;-11,96000
1091,79;  -22,060;   -0,170;   -0,520;-21,89000
1092,10;  -18,930;    0,580;    7,400;-19,51000
1092,41;  -32,400;    4,040;    6,290;-36,44000
1092,72;  -26,810;    5,710;    2,520;-32,52000
1093,03;  -26,850;    6,200;    0,650;-33,05000
1093,34;  -26,560;   -0,790;    4,380;-25,77000
1093,65;  -23,110;    1,250;    6,220;-24,36000
1093,97;  -26,690;   -0,180;    4,560;-26,51000
1094,28;  -26,110;   -1,600;    1,570;-24,51000
1094,59;  -18,010;    3,900;    2,380;-21,91000
1094,90;  -25,760;    2,630;    5,980;-28,39000
1095,21;  -20,690;    0,030;    1,980;-20,72000
1095,52;  -23,360;    1,090;   13,650;-24,45000
1095,83;  -28,850;    0,070;   -5,870;-28,92000
1096,14;  -28,180;    0,740;    5,280;-28,92000
1096,45;  -22,360;    7,160;    2,420;-29,52000
1096,76;  -24,840;   -2,060;   -1,260;-22,78000
1097,07;  -34,620;   -1,820;   -1,100;-32,80000
1097,38;  -29,530;    3,200;   -3,730;-32,73000
1097,69;  -21,100;   -4,050;   -0,290;-17,05000
1098,00;  -30,410;    0,450;   -4,840;-30,86000
1098,31;  -28,280;   12,670;    3,260;-40,95000
1098,63;  -27,290;   -6,560;   -0,200;-20,73000
1098,94;  -26,450;   -1,960;    4,810;-24,49000
1099,25;  -31,680;   -5,000;   -2,790;-26,68000
1099,56;  -21,430;    1,490;    7,060;-22,92000
1099,87;  -25,400;   -8,240;   -1,420;-17,16000
1100,18;  -24,280;    3,400;    8,150;-27,68000

